magnetometer.txt

All values are in micro-Tesla (uT). Factory calibration and temperature compensation are applied to this measurement
http://developer.android.com/guide/topics/sensors/sensors_overview.html

elapsed-time-system elapsed-time-sensor x y z estimated-bias-x estimated-bias-y estimated-bias-z
0.091 0.070 -38.341003 -225.501 -47.634 -40.9 -242.0 -10.8
0.092 0.090 -38.341003 -225.501 -47.634 -40.9 -242.0 -10.8
0.143 0.110 -31.7 -221.5 -43.8 -40.9 -242.0 -10.8
0.143 0.130 -31.600002 -221.4 -43.6 -40.9 -242.0 -10.8
0.167 0.150 -31.500002 -221.3 -44.1 -40.9 -242.0 -10.8
0.173 0.170 -31.7 -221.5 -44.3 -40.9 -242.0 -10.8
0.196 0.190 -31.900002 -221.6 -44.6 -40.9 -242.0 -10.8
0.210 0.210 -32.100002 -221.7 -44.7 -40.9 -242.0 -10.8
0.236 0.230 -32.4 -221.8 -44.7 -40.9 -242.0 -10.8
0.250 0.250 -32.7 -221.8 -44.7 -40.9 -242.0 -10.8
0.270 0.270 -33.100002 -221.9 -45.0 -40.9 -242.0 -10.8
0.290 0.290 -33.4 -222.0 -45.2 -40.9 -242.0 -10.8
0.310 0.310 -33.9 -222.0 -45.399998 -40.9 -242.0 -10.8
0.331 0.330 -34.2 -222.1 -45.5 -40.9 -242.0 -10.8
0.350 0.350 -34.600002 -222.1 -45.6 -40.9 -242.0 -10.8
0.370 0.370 -34.9 -222.1 -45.7 -40.9 -242.0 -10.8
0.390 0.390 -35.0 -222.2 -45.7 -40.9 -242.0 -10.8
0.410 0.410 -35.100002 -222.2 -45.8 -40.9 -242.0 -10.8
0.431 0.430 -35.0 -222.2 -45.8 -40.9 -242.0 -10.8
0.450 0.450 -35.0 -222.3 -45.8 -40.9 -242.0 -10.8
0.470 0.470 -35.0 -222.4 -45.8 -40.9 -242.0 -10.8
0.490 0.490 -35.0 -222.4 -45.8 -40.9 -242.0 -10.8
0.510 0.510 -35.0 -222.4 -45.8 -40.9 -242.0 -10.8
0.537 0.530 -34.9 -222.4 -45.8 -40.9 -242.0 -10.8
0.550 0.550 -34.9 -222.4 -45.8 -40.9 -242.0 -10.8
0.570 0.570 -34.9 -222.4 -45.8 -40.9 -242.0 -10.8
0.590 0.590 -34.9 -222.4 -45.7 -40.9 -242.0 -10.8
0.610 0.610 -35.0 -222.4 -45.6 -40.9 -242.0 -10.8
0.630 0.630 -35.0 -222.4 -45.6 -40.9 -242.0 -10.8
0.650 0.650 -35.0 -222.4 -45.6 -40.9 -242.0 -10.8
0.670 0.670 -35.0 -222.4 -45.7 -40.9 -242.0 -10.8
0.690 0.690 -35.0 -222.4 -45.7 -40.9 -242.0 -10.8
0.710 0.710 -35.100002 -222.5 -45.8 -40.9 -242.0 -10.8
0.730 0.730 -35.2 -222.5 -45.8 -40.9 -242.0 -10.8
0.750 0.750 -35.300003 -222.6 -45.899998 -40.9 -242.0 -10.8
0.770 0.770 -35.300003 -222.7 -45.899998 -40.9 -242.0 -10.8
0.790 0.790 -35.4 -222.7 -45.899998 -40.9 -242.0 -10.8
0.810 0.810 -35.5 -222.7 -45.899998 -40.9 -242.0 -10.8
0.831 0.830 -35.5 -222.7 -45.899998 -40.9 -242.0 -10.8
0.851 0.850 -35.5 -222.7 -46.0 -40.9 -242.0 -10.8
0.871 0.870 -35.4 -222.7 -45.899998 -40.9 -242.0 -10.8
0.891 0.890 -35.300003 -222.7 -45.899998 -40.9 -242.0 -10.8
0.911 0.910 -35.2 -222.7 -45.899998 -40.9 -242.0 -10.8
0.932 0.930 -35.0 -222.6 -45.8 -40.9 -242.0 -10.8
0.951 0.950 -34.9 -222.6 -45.8 -40.9 -242.0 -10.8
0.971 0.970 -34.800003 -222.6 -45.7 -40.9 -242.0 -10.8
0.991 0.990 -34.7 -222.6 -45.6 -40.9 -242.0 -10.8
1.011 1.010 -34.7 -222.6 -45.6 -40.9 -242.0 -10.8
1.032 1.030 -34.7 -222.6 -45.6 -40.9 -242.0 -10.8
1.051 1.050 -34.7 -222.6 -45.5 -40.9 -242.0 -10.8
1.071 1.070 -34.7 -222.5 -45.5 -40.9 -242.0 -10.8
1.091 1.090 -34.7 -222.5 -45.399998 -40.9 -242.0 -10.8
1.111 1.110 -34.7 -222.4 -45.399998 -40.9 -242.0 -10.8
1.131 1.130 -34.800003 -222.5 -45.399998 -40.9 -242.0 -10.8
1.151 1.150 -34.800003 -222.4 -45.399998 -40.9 -242.0 -10.8
1.171 1.170 -34.800003 -222.5 -45.399998 -40.9 -242.0 -10.8
1.191 1.190 -34.800003 -222.5 -45.5 -40.9 -242.0 -10.8
1.211 1.210 -34.800003 -222.5 -45.6 -40.9 -242.0 -10.8
1.231 1.230 -34.800003 -222.5 -45.6 -40.9 -242.0 -10.8
1.251 1.250 -34.800003 -222.5 -45.6 -40.9 -242.0 -10.8
1.271 1.270 -34.800003 -222.5 -45.5 -40.9 -242.0 -10.8
1.291 1.290 -34.800003 -222.4 -45.5 -40.9 -242.0 -10.8
1.312 1.311 -34.9 -222.4 -45.5 -40.9 -242.0 -10.8
1.331 1.330 -34.9 -222.3 -45.5 -40.9 -242.0 -10.8
1.351 1.350 -35.0 -222.3 -45.399998 -40.9 -242.0 -10.8
1.371 1.370 -35.0 -222.3 -45.399998 -40.9 -242.0 -10.8
1.391 1.390 -35.0 -222.2 -45.399998 -40.9 -242.0 -10.8
1.411 1.410 -35.100002 -222.2 -45.3 -40.9 -242.0 -10.8
1.431 1.430 -35.100002 -222.1 -45.3 -40.9 -242.0 -10.8
1.451 1.450 -35.100002 -222.1 -45.3 -40.9 -242.0 -10.8
1.471 1.470 -35.2 -222.1 -45.3 -40.9 -242.0 -10.8
1.491 1.490 -35.2 -222.1 -45.3 -40.9 -242.0 -10.8
1.511 1.510 -35.300003 -222.1 -45.3 -40.9 -242.0 -10.8
1.535 1.530 -35.300003 -222.1 -45.3 -40.9 -242.0 -10.8
1.551 1.550 -35.4 -222.1 -45.3 -40.9 -242.0 -10.8
1.571 1.570 -35.5 -222.1 -45.399998 -40.9 -242.0 -10.8
1.591 1.590 -35.600002 -222.1 -45.399998 -40.9 -242.0 -10.8
1.611 1.610 -35.7 -222.1 -45.399998 -40.9 -242.0 -10.8
1.631 1.630 -35.800003 -222.1 -45.399998 -40.9 -242.0 -10.8
1.651 1.650 -35.9 -222.1 -45.399998 -40.9 -242.0 -10.8
1.671 1.670 -36.0 -222.1 -45.5 -40.9 -242.0 -10.8
1.691 1.690 -36.100002 -222.1 -45.5 -40.9 -242.0 -10.8
1.711 1.710 -36.2 -222.1 -45.6 -40.9 -242.0 -10.8
1.731 1.730 -36.300003 -222.1 -45.5 -40.9 -242.0 -10.8
1.751 1.750 -36.300003 -222.1 -45.6 -40.9 -242.0 -10.8
1.770 1.770 -36.4 -222.0 -45.6 -40.9 -242.0 -10.8
1.791 1.790 -36.5 -222.0 -45.6 -40.9 -242.0 -10.8
1.811 1.810 -36.5 -222.0 -45.6 -40.9 -242.0 -10.8
1.832 1.830 -36.600002 -222.0 -45.6 -40.9 -242.0 -10.8
1.851 1.850 -36.7 -222.0 -45.6 -40.9 -242.0 -10.8
1.871 1.870 -36.7 -221.9 -45.6 -40.9 -242.0 -10.8
1.891 1.890 -36.800003 -222.0 -45.5 -40.9 -242.0 -10.8
1.911 1.910 -36.9 -221.9 -45.6 -40.9 -242.0 -10.8
1.931 1.930 -37.0 -221.9 -45.5 -40.9 -242.0 -10.8
1.951 1.950 -37.0 -221.9 -45.5 -40.9 -242.0 -10.8
1.971 1.970 -37.100002 -222.0 -45.5 -40.9 -242.0 -10.8
1.991 1.990 -37.100002 -222.0 -45.5 -40.9 -242.0 -10.8
2.011 2.010 -37.100002 -222.0 -45.6 -40.9 -242.0 -10.8
2.031 2.030 -37.2 -222.0 -45.5 -40.9 -242.0 -10.8
2.051 2.050 -37.2 -222.0 -45.6 -40.9 -242.0 -10.8
2.071 2.070 -37.2 -222.0 -45.5 -40.9 -242.0 -10.8
2.091 2.090 -37.300003 -222.0 -45.6 -40.9 -242.0 -10.8
2.111 2.110 -37.300003 -222.0 -45.6 -40.9 -242.0 -10.8
2.131 2.130 -37.300003 -222.1 -45.6 -40.9 -242.0 -10.8
2.151 2.150 -37.300003 -222.1 -45.5 -40.9 -242.0 -10.8
2.171 2.170 -37.300003 -222.1 -45.5 -40.9 -242.0 -10.8
2.191 2.190 -37.300003 -222.1 -45.5 -40.9 -242.0 -10.8
2.211 2.210 -37.300003 -222.1 -45.5 -40.9 -242.0 -10.8
2.231 2.230 -37.2 -222.2 -45.5 -40.9 -242.0 -10.8
2.251 2.250 -37.2 -222.2 -45.5 -40.9 -242.0 -10.8
2.271 2.270 -37.2 -222.3 -45.5 -40.9 -242.0 -10.8
2.291 2.290 -37.2 -222.3 -45.399998 -40.9 -242.0 -10.8
2.311 2.310 -37.2 -222.3 -45.399998 -40.9 -242.0 -10.8
2.331 2.330 -37.2 -222.3 -45.399998 -40.9 -242.0 -10.8
2.351 2.350 -37.2 -222.4 -45.399998 -40.9 -242.0 -10.8
2.371 2.370 -37.2 -222.4 -45.399998 -40.9 -242.0 -10.8
2.391 2.390 -37.2 -222.4 -45.399998 -40.9 -242.0 -10.8
2.411 2.410 -37.2 -222.4 -45.399998 -40.9 -242.0 -10.8
2.430 2.430 -37.2 -222.4 -45.3 -40.9 -242.0 -10.8
2.450 2.450 -37.2 -222.4 -45.3 -40.9 -242.0 -10.8
2.470 2.470 -37.100002 -222.5 -45.399998 -40.9 -242.0 -10.8
2.490 2.490 -37.100002 -222.5 -45.399998 -40.9 -242.0 -10.8
2.511 2.510 -37.100002 -222.5 -45.399998 -40.9 -242.0 -10.8
2.531 2.530 -37.100002 -222.5 -45.399998 -40.9 -242.0 -10.8
2.552 2.550 -37.100002 -222.5 -45.5 -40.9 -242.0 -10.8
2.571 2.570 -37.100002 -222.5 -45.399998 -40.9 -242.0 -10.8
2.591 2.590 -37.2 -222.5 -45.399998 -40.9 -242.0 -10.8
2.611 2.610 -37.2 -222.6 -45.399998 -40.9 -242.0 -10.8
2.631 2.630 -37.2 -222.6 -45.399998 -40.9 -242.0 -10.8
2.651 2.650 -37.2 -222.6 -45.399998 -40.9 -242.0 -10.8
2.671 2.670 -37.300003 -222.6 -45.399998 -40.9 -242.0 -10.8
2.691 2.690 -37.300003 -222.6 -45.3 -40.9 -242.0 -10.8
2.711 2.710 -37.300003 -222.5 -45.3 -40.9 -242.0 -10.8
2.731 2.730 -37.4 -222.5 -45.2 -40.9 -242.0 -10.8
2.751 2.750 -37.4 -222.4 -45.2 -40.9 -242.0 -10.8
2.771 2.770 -37.4 -222.4 -45.2 -40.9 -242.0 -10.8
2.791 2.790 -37.4 -222.3 -45.3 -40.9 -242.0 -10.8
2.811 2.810 -37.4 -222.3 -45.3 -40.9 -242.0 -10.8
2.831 2.830 -37.4 -222.2 -45.3 -40.9 -242.0 -10.8
2.851 2.850 -37.5 -222.1 -45.2 -40.9 -242.0 -10.8
2.871 2.870 -37.5 -222.1 -45.3 -40.9 -242.0 -10.8
2.891 2.890 -37.5 -222.0 -45.2 -40.9 -242.0 -10.8
2.911 2.910 -37.600002 -221.9 -45.2 -40.9 -242.0 -10.8
2.931 2.930 -37.600002 -221.9 -45.2 -40.9 -242.0 -10.8
2.951 2.950 -37.600002 -221.8 -45.1 -40.9 -242.0 -10.8
2.971 2.970 -37.600002 -221.8 -45.1 -40.9 -242.0 -10.8
2.991 2.990 -37.600002 -221.8 -45.1 -40.9 -242.0 -10.8
3.011 3.010 -37.600002 -221.7 -45.1 -40.9 -242.0 -10.8
3.031 3.030 -37.7 -221.7 -45.2 -40.9 -242.0 -10.8
3.051 3.050 -37.600002 -221.7 -45.2 -40.9 -242.0 -10.8
3.071 3.070 -37.600002 -221.6 -45.1 -40.9 -242.0 -10.8
3.091 3.090 -37.600002 -221.6 -45.2 -40.9 -242.0 -10.8
3.111 3.110 -37.600002 -221.6 -45.2 -40.9 -242.0 -10.8
3.131 3.130 -37.600002 -221.5 -45.2 -40.9 -242.0 -10.8
3.151 3.150 -37.5 -221.5 -45.1 -40.9 -242.0 -10.8
3.171 3.170 -37.5 -221.5 -45.1 -40.9 -242.0 -10.8
3.191 3.190 -37.5 -221.4 -45.0 -40.9 -242.0 -10.8
3.211 3.210 -37.5 -221.4 -45.0 -40.9 -242.0 -10.8
3.231 3.230 -37.5 -221.4 -45.1 -40.9 -242.0 -10.8
3.251 3.250 -37.5 -221.4 -45.0 -40.9 -242.0 -10.8
3.271 3.270 -37.5 -221.4 -45.0 -40.9 -242.0 -10.8
3.291 3.290 -37.5 -221.3 -45.0 -40.9 -242.0 -10.8
3.311 3.310 -37.5 -221.3 -45.0 -40.9 -242.0 -10.8
3.331 3.330 -37.4 -221.3 -45.0 -40.9 -242.0 -10.8
3.351 3.350 -37.4 -221.3 -45.0 -40.9 -242.0 -10.8
3.374 3.370 -37.4 -221.3 -45.1 -40.9 -242.0 -10.8
3.391 3.390 -37.4 -221.3 -45.0 -40.9 -242.0 -10.8
3.411 3.410 -37.300003 -221.3 -44.899998 -40.9 -242.0 -10.8
3.431 3.430 -37.300003 -221.3 -44.899998 -40.9 -242.0 -10.8
3.451 3.450 -37.2 -221.3 -44.899998 -40.9 -242.0 -10.8
3.471 3.470 -37.2 -221.4 -44.8 -40.9 -242.0 -10.8
3.491 3.490 -37.100002 -221.4 -44.8 -40.9 -242.0 -10.8
3.511 3.510 -37.0 -221.4 -44.8 -40.9 -242.0 -10.8
3.531 3.530 -36.9 -221.4 -44.8 -40.9 -242.0 -10.8
3.551 3.550 -36.9 -221.4 -44.899998 -40.9 -242.0 -10.8
3.571 3.570 -36.9 -221.4 -44.899998 -40.9 -242.0 -10.8
3.591 3.590 -36.9 -221.4 -44.899998 -40.9 -242.0 -10.8
3.611 3.610 -36.800003 -221.4 -44.8 -40.9 -242.0 -10.8
3.631 3.630 -36.800003 -221.4 -44.7 -40.9 -242.0 -10.8
3.651 3.650 -36.800003 -221.3 -44.7 -40.9 -242.0 -10.8
3.673 3.670 -36.7 -221.3 -44.7 -40.9 -242.0 -10.8
3.691 3.690 -36.7 -221.3 -44.7 -40.9 -242.0 -10.8
3.711 3.710 -36.600002 -221.3 -44.6 -40.9 -242.0 -10.8
3.731 3.730 -36.600002 -221.2 -44.6 -40.9 -242.0 -10.8
3.751 3.750 -36.600002 -221.3 -44.7 -40.9 -242.0 -10.8
3.771 3.770 -36.5 -221.3 -44.7 -40.9 -242.0 -10.8
3.791 3.790 -36.4 -221.3 -44.7 -40.9 -242.0 -10.8
3.811 3.810 -36.2 -221.3 -44.7 -40.9 -242.0 -10.8
3.831 3.830 -36.0 -221.3 -44.7 -40.9 -242.0 -10.8
3.851 3.850 -35.800003 -221.3 -44.7 -40.9 -242.0 -10.8
3.871 3.870 -35.5 -221.4 -44.6 -40.9 -242.0 -10.8
3.891 3.890 -35.2 -221.4 -44.6 -40.9 -242.0 -10.8
3.911 3.910 -32.565002 -221.629 -43.822998 -40.9 -242.0 -10.8
3.931 3.930 -29.261002 -221.919 -43.058 -40.9 -242.0 -10.8
3.951 3.950 -27.082 -222.234 -42.57 -40.9 -242.0 -10.8
3.972 3.970 -23.761002 -222.995 -40.696 -40.9 -242.0 -10.8
3.991 3.990 -22.464 -223.184 -39.375 -40.9 -242.0 -10.8
4.011 4.010 -21.292002 -223.837 -38.544 -40.9 -242.0 -10.8
4.031 4.030 -19.060001 -223.57 -36.421 -40.9 -242.0 -10.8
4.052 4.050 -16.580002 -223.222 -35.835 -40.9 -242.0 -10.8
4.071 4.070 -16.175001 -223.597 -33.964 -40.9 -242.0 -10.8
4.091 4.090 -14.586002 -224.241 -33.183 -40.9 -242.0 -10.8
4.112 4.110 -13.604002 -224.049 -30.124 -40.9 -242.0 -10.8
4.131 4.130 -12.575001 -223.138 -30.529999 -40.9 -242.0 -10.8
4.153 4.150 -12.700001 -223.354 -28.354 -40.9 -242.0 -10.8
4.171 4.170 -12.085001 -223.407 -25.869999 -40.9 -242.0 -10.8
4.191 4.190 -11.188002 -223.14 -24.547 -40.9 -242.0 -10.8
4.211 4.210 -10.312002 -222.251 -22.043 -40.9 -242.0 -10.8
4.231 4.230 -10.245001 -222.117 -20.422 -40.9 -242.0 -10.8
4.254 4.250 -10.443001 -222.782 -19.723 -40.9 -242.0 -10.8
4.271 4.270 -10.912001 -222.932 -19.958 -40.9 -242.0 -10.8
4.291 4.290 -9.640001 -222.72 -15.047001 -40.9 -242.0 -10.8
4.311 4.310 -8.75 -222.564 -15.258 -40.9 -242.0 -10.8
4.331 4.330 -9.783001 -222.886 -15.209 -40.9 -242.0 -10.8
4.351 4.350 -8.963001 -223.072 -14.249001 -40.9 -242.0 -10.8
4.371 4.370 -9.196001 -222.901 -14.514 -40.9 -242.0 -10.8
4.391 4.390 -10.001001 -223.569 -13.892 -40.9 -242.0 -10.8
4.411 4.410 -8.873001 -223.078 -14.168 -40.9 -242.0 -10.8
4.431 4.430 -8.600002 -223.397 -14.161 -40.9 -242.0 -10.8
4.451 4.450 -8.839001 -223.552 -14.459 -40.9 -242.0 -10.8
4.471 4.470 -9.637001 -223.105 -13.578 -40.9 -242.0 -10.8
4.491 4.490 -9.638002 -222.653 -12.693 -40.9 -242.0 -10.8
4.511 4.510 -9.086002 -223.264 -13.2630005 -40.9 -242.0 -10.8
4.531 4.530 -9.271002 -223.228 -15.022 -40.9 -242.0 -10.8
4.553 4.550 -8.281002 -222.65399 -13.301001 -40.9 -242.0 -10.8
4.571 4.570 -9.552002 -223.265 -13.33 -40.9 -242.0 -10.8
4.591 4.590 -9.040001 -223.266 -13.335 -40.9 -242.0 -10.8
4.611 4.610 -8.974001 -222.22 -14.731 -40.9 -242.0 -10.8
4.631 4.630 -9.943001 -222.274 -13.699 -40.9 -242.0 -10.8
4.651 4.650 -9.909002 -222.826 -13.744 -40.9 -242.0 -10.8
4.671 4.670 -9.017002 -222.465 -13.534 -40.9 -242.0 -10.8
4.691 4.690 -9.001001 -222.361 -14.715 -40.9 -242.0 -10.8
4.711 4.710 -9.040001 -222.209 -13.928 -40.9 -242.0 -10.8
4.731 4.730 -9.642002 -222.764 -13.908 -40.9 -242.0 -10.8
4.751 4.750 -9.376001 -222.834 -14.13 -40.9 -242.0 -10.8
4.771 4.770 -9.200001 -222.8 -14.200001 -40.9 -242.0 -10.8
4.791 4.791 -9.200001 -222.8 -13.8 -40.9 -242.0 -10.8
4.811 4.810 -9.200001 -222.8 -13.6 -40.9 -242.0 -10.8
4.831 4.830 -9.200001 -222.8 -13.3 -40.9 -242.0 -10.8
4.854 4.850 -9.200001 -222.8 -13.1 -40.9 -242.0 -10.8
4.871 4.870 -9.200001 -222.8 -12.9 -40.9 -242.0 -10.8
4.891 4.890 -9.200001 -222.7 -12.8 -40.9 -242.0 -10.8
4.912 4.910 -9.200001 -222.7 -12.8 -40.9 -242.0 -10.8
4.931 4.930 -9.200001 -222.7 -12.7 -40.9 -242.0 -10.8
4.951 4.950 -9.200001 -222.7 -12.7 -40.9 -242.0 -10.8
4.971 4.970 -9.200001 -222.7 -12.7 -40.9 -242.0 -10.8
4.991 4.990 -9.200001 -222.6 -12.7 -40.9 -242.0 -10.8
5.011 5.010 -9.200001 -222.6 -12.7 -40.9 -242.0 -10.8
5.031 5.030 -9.300001 -222.6 -12.6 -40.9 -242.0 -10.8
5.051 5.050 -9.300001 -222.6 -12.6 -40.9 -242.0 -10.8
5.071 5.070 -9.300001 -222.5 -12.6 -40.9 -242.0 -10.8
5.091 5.090 -9.200001 -222.5 -12.6 -40.9 -242.0 -10.8
5.111 5.110 -9.200001 -222.5 -12.6 -40.9 -242.0 -10.8
5.131 5.130 -9.200001 -222.5 -12.6 -40.9 -242.0 -10.8
5.151 5.150 -9.300001 -222.5 -12.6 -40.9 -242.0 -10.8
5.171 5.170 -9.300001 -222.4 -12.6 -40.9 -242.0 -10.8
5.191 5.190 -9.300001 -222.4 -12.6 -40.9 -242.0 -10.8
5.211 5.210 -9.300001 -222.4 -12.6 -40.9 -242.0 -10.8
5.232 5.230 -9.300001 -222.4 -12.5 -40.9 -242.0 -10.8
5.251 5.250 -9.300001 -222.4 -12.5 -40.9 -242.0 -10.8
5.271 5.270 -9.300001 -222.4 -12.6 -40.9 -242.0 -10.8
5.291 5.290 -9.300001 -222.5 -12.5 -40.9 -242.0 -10.8
5.311 5.310 -9.300001 -222.5 -12.5 -40.9 -242.0 -10.8
5.331 5.330 -9.200001 -222.5 -12.5 -40.9 -242.0 -10.8
5.351 5.350 -9.200001 -222.5 -12.5 -40.9 -242.0 -10.8
5.371 5.370 -9.200001 -222.5 -12.5 -40.9 -242.0 -10.8
5.391 5.390 -9.200001 -222.6 -12.5 -40.9 -242.0 -10.8
5.411 5.410 -9.200001 -222.6 -12.5 -40.9 -242.0 -10.8
5.434 5.430 -9.200001 -222.6 -12.6 -40.9 -242.0 -10.8
5.451 5.450 -9.200001 -222.6 -12.6 -40.9 -242.0 -10.8
5.472 5.470 -9.200001 -222.6 -12.6 -40.9 -242.0 -10.8
5.491 5.490 -9.200001 -222.6 -12.6 -40.9 -242.0 -10.8
5.511 5.510 -9.200001 -222.7 -12.5 -40.9 -242.0 -10.8
5.531 5.530 -9.200001 -222.6 -12.6 -40.9 -242.0 -10.8
5.551 5.550 -9.200001 -222.7 -12.5 -40.9 -242.0 -10.8
5.570 5.570 -9.200001 -222.7 -12.5 -40.9 -242.0 -10.8
5.590 5.590 -9.200001 -222.7 -12.5 -40.9 -242.0 -10.8
5.610 5.610 -9.200001 -222.7 -12.5 -40.9 -242.0 -10.8
5.631 5.630 -9.200001 -222.7 -12.5 -40.9 -242.0 -10.8
5.651 5.650 -9.300001 -222.7 -12.5 -40.9 -242.0 -10.8
5.672 5.670 -9.300001 -222.7 -12.5 -40.9 -242.0 -10.8
5.691 5.690 -9.300001 -222.7 -12.6 -40.9 -242.0 -10.8
5.711 5.710 -9.300001 -222.7 -12.6 -40.9 -242.0 -10.8
5.733 5.730 -9.300001 -222.7 -12.6 -40.9 -242.0 -10.8
5.752 5.750 -9.300001 -222.7 -12.6 -40.9 -242.0 -10.8
5.771 5.770 -9.400002 -222.7 -12.6 -40.9 -242.0 -10.8
5.791 5.790 -9.400002 -222.7 -12.7 -40.9 -242.0 -10.8
5.811 5.810 -9.400002 -222.7 -12.6 -40.9 -242.0 -10.8
5.831 5.830 -9.300001 -222.7 -12.6 -40.9 -242.0 -10.8
5.851 5.850 -9.300001 -222.8 -12.7 -40.9 -242.0 -10.8
5.874 5.871 -9.300001 -222.8 -12.6 -40.9 -242.0 -10.8
5.895 5.890 -9.300001 -222.7 -12.6 -40.9 -242.0 -10.8
5.911 5.910 -9.300001 -222.7 -12.6 -40.9 -242.0 -10.8
5.930 5.930 -9.300001 -222.7 -12.6 -40.9 -242.0 -10.8
5.950 5.950 -9.300001 -222.7 -12.6 -40.9 -242.0 -10.8
5.971 5.970 -9.300001 -222.7 -12.7 -40.9 -242.0 -10.8
5.991 5.990 -9.400002 -222.7 -12.7 -40.9 -242.0 -10.8
6.011 6.010 -9.400002 -222.7 -12.7 -40.9 -242.0 -10.8
6.032 6.030 -9.400002 -222.7 -12.7 -40.9 -242.0 -10.8
6.051 6.050 -9.400002 -222.7 -12.7 -40.9 -242.0 -10.8
6.071 6.070 -9.400002 -222.7 -12.7 -40.9 -242.0 -10.8
6.091 6.091 -9.400002 -222.7 -12.7 -40.9 -242.0 -10.8
6.111 6.110 -9.400002 -222.7 -12.8 -40.9 -242.0 -10.8
6.131 6.130 -9.400002 -222.7 -12.8 -40.9 -242.0 -10.8
6.151 6.150 -9.400002 -222.6 -12.8 -40.9 -242.0 -10.8
6.171 6.170 -9.400002 -222.6 -12.8 -40.9 -242.0 -10.8
6.191 6.190 -9.400002 -222.6 -12.9 -40.9 -242.0 -10.8
6.211 6.210 -9.400002 -222.6 -12.9 -40.9 -242.0 -10.8
6.231 6.230 -9.400002 -222.6 -12.8 -40.9 -242.0 -10.8
6.251 6.250 -9.400002 -222.6 -12.9 -40.9 -242.0 -10.8
6.271 6.270 -9.400002 -222.6 -12.8 -40.9 -242.0 -10.8
6.291 6.290 -9.400002 -222.6 -12.8 -40.9 -242.0 -10.8
6.311 6.310 -9.400002 -222.6 -12.8 -40.9 -242.0 -10.8
6.331 6.330 -9.400002 -222.6 -12.8 -40.9 -242.0 -10.8
6.351 6.350 -9.300001 -222.6 -12.8 -40.9 -242.0 -10.8
6.371 6.370 -9.300001 -222.7 -12.8 -40.9 -242.0 -10.8
6.391 6.390 -9.300001 -222.7 -12.8 -40.9 -242.0 -10.8
6.411 6.410 -9.300001 -222.7 -12.8 -40.9 -242.0 -10.8
6.431 6.430 -9.300001 -222.7 -12.8 -40.9 -242.0 -10.8
6.451 6.450 -9.300001 -222.7 -12.7 -40.9 -242.0 -10.8
6.471 6.470 -9.300001 -222.7 -12.8 -40.9 -242.0 -10.8
6.491 6.490 -9.300001 -222.7 -12.8 -40.9 -242.0 -10.8
6.511 6.510 -9.400002 -222.7 -12.8 -40.9 -242.0 -10.8
6.531 6.530 -9.400002 -222.7 -12.8 -40.9 -242.0 -10.8
6.552 6.550 -9.400002 -222.7 -12.8 -40.9 -242.0 -10.8
6.571 6.570 -9.400002 -222.7 -12.8 -40.9 -242.0 -10.8
6.591 6.590 -9.300001 -222.7 -12.9 -40.9 -242.0 -10.8
6.611 6.610 -9.300001 -222.6 -12.8 -40.9 -242.0 -10.8
6.631 6.630 -9.300001 -222.6 -12.8 -40.9 -242.0 -10.8
6.651 6.650 -9.300001 -222.6 -12.7 -40.9 -242.0 -10.8
6.671 6.670 -9.300001 -222.6 -12.7 -40.9 -242.0 -10.8
6.691 6.690 -9.300001 -222.6 -12.7 -40.9 -242.0 -10.8
6.711 6.710 -9.300001 -222.6 -12.6 -40.9 -242.0 -10.8
6.731 6.730 -9.300001 -222.6 -12.6 -40.9 -242.0 -10.8
6.751 6.750 -9.300001 -222.6 -12.6 -40.9 -242.0 -10.8
6.771 6.770 -9.400002 -222.6 -12.6 -40.9 -242.0 -10.8
6.791 6.790 -9.300001 -222.6 -12.6 -40.9 -242.0 -10.8
6.811 6.810 -9.400002 -222.6 -12.6 -40.9 -242.0 -10.8
6.831 6.830 -9.400002 -222.6 -12.6 -40.9 -242.0 -10.8
6.852 6.850 -9.500002 -222.6 -12.6 -40.9 -242.0 -10.8
6.871 6.870 -9.500002 -222.5 -12.7 -40.9 -242.0 -10.8
6.891 6.890 -9.500002 -222.5 -12.7 -40.9 -242.0 -10.8
6.911 6.910 -9.500002 -222.5 -12.7 -40.9 -242.0 -10.8
6.931 6.930 -9.500002 -222.5 -12.7 -40.9 -242.0 -10.8
6.951 6.950 -9.500002 -222.5 -12.7 -40.9 -242.0 -10.8
6.971 6.970 -9.500002 -222.5 -12.7 -40.9 -242.0 -10.8
6.991 6.990 -9.500002 -222.5 -12.7 -40.9 -242.0 -10.8
7.012 7.010 -9.500002 -222.5 -12.8 -40.9 -242.0 -10.8
7.031 7.030 -9.600002 -222.5 -12.8 -40.9 -242.0 -10.8
7.051 7.050 -9.500002 -222.5 -12.9 -40.9 -242.0 -10.8
7.071 7.070 -9.500002 -222.6 -12.8 -40.9 -242.0 -10.8
7.091 7.090 -9.500002 -222.6 -12.8 -40.9 -242.0 -10.8
7.111 7.110 -9.500002 -222.7 -12.8 -40.9 -242.0 -10.8
7.131 7.130 -9.500002 -222.8 -12.7 -40.9 -242.0 -10.8
7.151 7.150 -9.400002 -222.9 -12.7 -40.9 -242.0 -10.8
7.171 7.170 -9.400002 -223.0 -12.6 -40.9 -242.0 -10.8
7.191 7.190 -9.300001 -223.2 -12.400001 -40.9 -242.0 -10.8
7.211 7.210 -9.200001 -223.3 -12.400001 -40.9 -242.0 -10.8
7.231 7.230 -9.100002 -223.5 -12.400001 -40.9 -242.0 -10.8
7.251 7.250 -9.100002 -223.8 -12.400001 -40.9 -242.0 -10.8
7.271 7.270 -9.000002 -224.0 -12.5 -40.9 -242.0 -10.8
7.291 7.290 -8.800003 -224.2 -12.5 -40.9 -242.0 -10.8
7.311 7.310 -8.498001 -224.814 -12.912001 -40.9 -242.0 -10.8
7.331 7.330 -7.7820015 -225.83499 -13.239 -40.9 -242.0 -10.8
7.351 7.350 -7.6150017 -227.113 -13.6 -40.9 -242.0 -10.8
7.371 7.370 -6.792 -228.072 -14.221001 -40.9 -242.0 -10.8
7.391 7.390 -6.085003 -230.009 -14.369 -40.9 -242.0 -10.8
7.411 7.410 -5.5600014 -231.079 -14.785 -40.9 -242.0 -10.8
7.431 7.430 -5.0320015 -232.648 -15.843 -40.9 -242.0 -10.8
7.451 7.450 -4.8050003 -233.961 -15.223 -40.9 -242.0 -10.8
7.471 7.470 -4.1690025 -235.894 -16.048 -40.9 -242.0 -10.8
7.492 7.490 -4.0020027 -237.483 -14.784 -40.9 -242.0 -10.8
7.513 7.510 -2.993 -238.265 -15.654 -38.1 -236.4 -14.8
7.531 7.530 -3.375 -240.15799 -17.158 -38.1 -236.4 -14.8
7.551 7.550 -2.9169998 -242.13199 -15.222 -38.1 -236.4 -14.8
7.571 7.570 -2.9139977 -243.969 -14.88 -38.1 -236.4 -14.8
7.594 7.590 -3.007 -246.293 -11.9800005 -38.1 -236.4 -14.8
7.611 7.610 -2.982998 -246.77199 -12.190001 -38.1 -236.4 -14.8
7.631 7.630 -3.0349998 -248.48 -10.667 -38.1 -236.4 -14.8
7.651 7.650 -3.7819977 -250.092 -12.073 -38.1 -236.4 -14.8
7.671 7.670 -5.1259995 -251.87999 -12.0460005 -38.1 -236.4 -14.8
7.691 7.690 -4.6519966 -253.03699 -10.8220005 -38.1 -236.4 -14.8
7.711 7.710 -6.1989994 -255.501 -12.354 -37.5 -241.5 -15.7
7.731 7.730 -5.9990005 -256.422 -10.847 -37.5 -241.5 -15.7
7.751 7.750 -6.556999 -258.258 -11.125 -37.5 -241.5 -15.7
7.772 7.770 -8.317999 -260.091 -9.9470005 -39.1 -243.4 -16.0
7.791 7.790 -9.367998 -260.92798 -11.43 -39.1 -243.4 -16.0
7.811 7.810 -9.364998 -261.615 -12.018 -39.1 -243.4 -16.0
7.831 7.830 -10.511999 -263.17398 -10.517 -39.1 -243.4 -16.0
7.851 7.850 -11.353998 -264.211 -9.915 -39.1 -243.4 -16.0
7.871 7.870 -13.024998 -265.746 -9.0130005 -39.1 -243.4 -16.0
7.892 7.890 -12.792999 -265.51498 -8.396 -39.1 -243.4 -16.0
7.911 7.910 -12.505999 -266.32098 -9.278999 -39.1 -243.4 -16.0
7.930 7.930 -13.827999 -266.819 -10.171 -39.1 -243.4 -16.0
7.951 7.950 -13.182001 -266.312 -10.448 -37.4 -242.3 -15.9
7.970 7.970 -14.285002 -266.99 -9.26 -37.4 -242.3 -15.9
7.990 7.990 -14.553001 -267.342 -9.26 -37.4 -242.3 -15.9
8.011 8.010 -14.805002 -267.51 -8.952 -37.4 -242.3 -15.9
8.031 8.030 -15.028002 -267.664 -9.246 -37.4 -242.3 -15.9
8.051 8.050 -14.520002 -268.144 -7.799 -37.4 -242.3 -15.9
8.071 8.070 -14.863001 -267.13202 -10.082 -37.4 -242.3 -15.9
8.091 8.090 -15.107002 -267.29 -7.599 -37.4 -242.3 -15.9
8.111 8.110 -14.553001 -267.415 -8.948999 -37.4 -242.3 -15.9
8.131 8.130 -14.998001 -267.404 -9.486 -37.4 -242.3 -15.9
8.151 8.150 -14.989002 -266.87 -8.935999 -37.4 -242.3 -15.9
8.171 8.170 -14.699001 -266.986 -9.684 -37.4 -242.3 -15.9
8.192 8.190 -14.955002 -267.696 -9.4279995 -37.4 -242.3 -15.9
8.211 8.210 -14.332001 -267.203 -7.4679995 -37.4 -242.3 -15.9
8.231 8.230 -13.670002 -266.925 -8.455999 -37.4 -242.3 -15.9
8.252 8.250 -14.869001 -267.639 -9.371 -37.4 -242.3 -15.9
8.272 8.270 -15.090002 -267.087 -8.683 -37.4 -242.3 -15.9
8.291 8.290 -14.373001 -267.055 -8.684999 -37.4 -242.3 -15.9
8.311 8.310 -14.835001 -267.562 -8.889 -37.4 -242.3 -15.9
8.331 8.330 -14.465002 -267.08002 -9.031 -37.4 -242.3 -15.9
8.351 8.350 -14.557001 -267.232 -9.271 -37.4 -242.3 -15.9
8.371 8.370 -14.389002 -267.29 -8.9539995 -37.4 -242.3 -15.9
8.391 8.390 -14.500002 -267.3 -9.0 -37.4 -242.3 -15.9
8.411 8.410 -14.700001 -267.5 -8.9 -37.4 -242.3 -15.9
8.431 8.430 -14.900002 -267.7 -8.9 -37.4 -242.3 -15.9
8.451 8.450 -15.100002 -267.8 -8.799999 -37.4 -242.3 -15.9
8.471 8.470 -15.200001 -267.9 -8.799999 -37.4 -242.3 -15.9
8.492 8.490 -15.400002 -268.0 -8.799999 -37.4 -242.3 -15.9
8.511 8.510 -15.600002 -268.1 -8.799999 -37.4 -242.3 -15.9
8.531 8.530 -15.700001 -268.2 -8.799999 -37.4 -242.3 -15.9
8.551 8.550 -15.700001 -268.2 -8.7 -37.4 -242.3 -15.9
8.571 8.570 -15.700001 -268.2 -8.7 -37.4 -242.3 -15.9
8.591 8.590 -15.700001 -268.2 -8.799999 -37.4 -242.3 -15.9
8.611 8.610 -15.700001 -268.2 -8.799999 -37.4 -242.3 -15.9
8.631 8.630 -15.700001 -268.2 -8.799999 -37.4 -242.3 -15.9
8.651 8.650 -15.700001 -268.2 -8.799999 -37.4 -242.3 -15.9
8.671 8.670 -15.800001 -268.2 -8.7 -37.4 -242.3 -15.9
8.691 8.690 -15.700001 -268.2 -8.799999 -37.4 -242.3 -15.9
8.711 8.710 -15.800001 -268.2 -8.799999 -37.4 -242.3 -15.9
8.731 8.730 -15.800001 -268.2 -8.7 -37.4 -242.3 -15.9
8.751 8.750 -15.700001 -268.2 -8.7 -37.4 -242.3 -15.9
8.773 8.770 -15.700001 -268.2 -8.7 -37.4 -242.3 -15.9
8.791 8.790 -15.700001 -268.2 -8.599999 -37.4 -242.3 -15.9
8.811 8.810 -15.800001 -268.2 -8.7 -37.4 -242.3 -15.9
8.831 8.830 -15.800001 -268.2 -8.7 -37.4 -242.3 -15.9
8.851 8.850 -15.900002 -268.2 -8.7 -37.4 -242.3 -15.9
8.872 8.871 -15.800001 -268.3 -8.7 -37.4 -242.3 -15.9
8.891 8.890 -15.900002 -268.3 -8.799999 -37.4 -242.3 -15.9
8.911 8.910 -15.900002 -268.3 -8.7 -37.4 -242.3 -15.9
8.931 8.930 -15.900002 -268.3 -8.7 -37.4 -242.3 -15.9
8.951 8.950 -15.900002 -268.4 -8.599999 -37.4 -242.3 -15.9
8.970 8.970 -15.900002 -268.4 -8.599999 -37.4 -242.3 -15.9
8.990 8.990 -15.900002 -268.4 -8.599999 -37.4 -242.3 -15.9
9.012 9.010 -16.000002 -268.4 -8.599999 -37.4 -242.3 -15.9
9.031 9.030 -16.000002 -268.4 -8.599999 -37.4 -242.3 -15.9
9.051 9.050 -16.000002 -268.4 -8.7 -37.4 -242.3 -15.9
9.073 9.070 -16.000002 -268.4 -8.599999 -37.4 -242.3 -15.9
9.091 9.090 -16.000002 -268.4 -8.599999 -37.4 -242.3 -15.9
9.111 9.110 -16.100002 -268.4 -8.599999 -37.4 -242.3 -15.9
9.131 9.130 -16.100002 -268.5 -8.599999 -37.4 -242.3 -15.9
9.151 9.150 -16.2 -268.5 -8.599999 -37.4 -242.3 -15.9
9.171 9.170 -16.2 -268.5 -8.599999 -37.4 -242.3 -15.9
9.191 9.190 -16.300001 -268.6 -8.599999 -37.4 -242.3 -15.9
9.211 9.210 -16.300001 -268.6 -8.599999 -37.4 -242.3 -15.9
9.231 9.230 -16.300001 -268.6 -8.599999 -37.4 -242.3 -15.9
9.251 9.250 -16.300001 -268.7 -8.599999 -37.4 -242.3 -15.9
9.271 9.270 -16.400002 -268.7 -8.599999 -37.4 -242.3 -15.9
9.291 9.290 -16.400002 -268.8 -8.599999 -37.4 -242.3 -15.9
9.311 9.310 -16.400002 -268.8 -8.599999 -37.4 -242.3 -15.9
9.331 9.330 -16.400002 -268.8 -8.7 -37.4 -242.3 -15.9
9.351 9.350 -16.400002 -268.8 -8.7 -37.4 -242.3 -15.9
9.372 9.370 -16.500002 -268.9 -8.7 -37.4 -242.3 -15.9
9.391 9.390 -16.400002 -268.9 -8.7 -37.4 -242.3 -15.9
9.411 9.410 -16.500002 -268.9 -8.7 -37.4 -242.3 -15.9
9.432 9.430 -16.500002 -269.0 -8.7 -37.4 -242.3 -15.9
9.451 9.450 -16.400002 -268.9 -8.599999 -37.4 -242.3 -15.9
9.471 9.470 -16.500002 -269.0 -8.599999 -37.4 -242.3 -15.9
9.490 9.490 -16.500002 -268.9 -8.5 -37.4 -242.3 -15.9
9.511 9.510 -16.500002 -269.0 -8.599999 -37.4 -242.3 -15.9
9.530 9.530 -16.500002 -269.0 -8.7 -37.4 -242.3 -15.9
9.550 9.550 -16.500002 -269.0 -8.7 -37.4 -242.3 -15.9
9.570 9.570 -16.500002 -269.0 -8.7 -37.4 -242.3 -15.9
9.590 9.590 -16.600002 -269.0 -8.7 -37.4 -242.3 -15.9
9.611 9.610 -16.600002 -269.1 -8.599999 -37.4 -242.3 -15.9
9.631 9.630 -16.600002 -269.1 -8.599999 -37.4 -242.3 -15.9
9.652 9.650 -16.600002 -269.1 -8.599999 -37.4 -242.3 -15.9
9.671 9.670 -16.600002 -269.1 -8.7 -37.4 -242.3 -15.9
9.691 9.690 -16.600002 -269.1 -8.799999 -37.4 -242.3 -15.9
9.711 9.710 -16.600002 -269.1 -8.799999 -37.4 -242.3 -15.9
9.731 9.730 -16.600002 -269.1 -8.7 -37.4 -242.3 -15.9
9.752 9.751 -16.600002 -269.2 -8.7 -37.4 -242.3 -15.9
9.771 9.770 -16.600002 -269.2 -8.7 -37.4 -242.3 -15.9
9.791 9.790 -16.600002 -269.1 -8.7 -37.4 -242.3 -15.9
9.811 9.810 -16.600002 -269.1 -8.7 -37.4 -242.3 -15.9
9.831 9.830 -16.600002 -269.1 -8.7 -37.4 -242.3 -15.9
9.851 9.850 -16.600002 -269.1 -8.599999 -37.4 -242.3 -15.9
9.871 9.870 -16.600002 -269.1 -8.599999 -37.4 -242.3 -15.9
9.891 9.890 -16.600002 -269.1 -8.599999 -37.4 -242.3 -15.9
9.911 9.910 -16.600002 -269.1 -8.599999 -37.4 -242.3 -15.9
9.931 9.930 -16.600002 -269.1 -8.5 -37.4 -242.3 -15.9
9.951 9.950 -16.600002 -269.1 -8.599999 -37.4 -242.3 -15.9
9.971 9.970 -16.600002 -269.1 -8.599999 -37.4 -242.3 -15.9
9.991 9.990 -16.7 -269.2 -8.599999 -37.4 -242.3 -15.9
10.011 10.010 -16.7 -269.1 -8.599999 -37.4 -242.3 -15.9
10.031 10.030 -16.7 -269.1 -8.7 -37.4 -242.3 -15.9
10.051 10.050 -16.7 -269.1 -8.7 -37.4 -242.3 -15.9
10.071 10.070 -16.7 -269.2 -8.7 -37.4 -242.3 -15.9
10.091 10.090 -16.7 -269.2 -8.799999 -37.4 -242.3 -15.9
10.111 10.110 -16.800001 -269.2 -8.799999 -37.4 -242.3 -15.9
10.131 10.130 -16.800001 -269.2 -8.7 -37.4 -242.3 -15.9
10.151 10.150 -16.800001 -269.2 -8.7 -37.4 -242.3 -15.9
10.171 10.170 -16.800001 -269.2 -8.7 -37.4 -242.3 -15.9
10.191 10.190 -16.800001 -269.2 -8.799999 -37.4 -242.3 -15.9
10.211 10.210 -16.800001 -269.2 -8.799999 -37.4 -242.3 -15.9
10.231 10.230 -16.800001 -269.2 -8.7 -37.4 -242.3 -15.9
10.251 10.250 -16.800001 -269.2 -8.7 -37.4 -242.3 -15.9
10.271 10.270 -16.900002 -269.2 -8.7 -37.4 -242.3 -15.9
10.291 10.290 -16.900002 -269.2 -8.7 -37.4 -242.3 -15.9
10.311 10.310 -16.800001 -269.2 -8.7 -37.4 -242.3 -15.9
10.331 10.330 -16.800001 -269.2 -8.7 -37.4 -242.3 -15.9
10.352 10.350 -16.800001 -269.2 -8.7 -37.4 -242.3 -15.9
10.371 10.370 -16.800001 -269.3 -8.7 -37.4 -242.3 -15.9
10.391 10.390 -16.800001 -269.3 -8.7 -37.4 -242.3 -15.9
10.411 10.410 -16.800001 -269.3 -8.7 -37.4 -242.3 -15.9
10.432 10.430 -16.800001 -269.3 -8.7 -37.4 -242.3 -15.9
10.451 10.450 -16.900002 -269.4 -8.7 -37.4 -242.3 -15.9
10.471 10.470 -16.900002 -269.4 -8.7 -37.4 -242.3 -15.9
10.491 10.490 -16.900002 -269.4 -8.7 -37.4 -242.3 -15.9
10.511 10.510 -16.900002 -269.4 -8.799999 -37.4 -242.3 -15.9
10.531 10.530 -16.900002 -269.3 -8.799999 -37.4 -242.3 -15.9
10.551 10.550 -16.900002 -269.4 -8.799999 -37.4 -242.3 -15.9
10.571 10.570 -17.000002 -269.4 -8.799999 -37.4 -242.3 -15.9
10.591 10.590 -17.000002 -269.4 -8.799999 -37.4 -242.3 -15.9
10.611 10.610 -16.900002 -269.4 -8.799999 -37.4 -242.3 -15.9
10.631 10.630 -17.000002 -269.4 -8.799999 -37.4 -242.3 -15.9
10.651 10.650 -16.900002 -269.4 -8.799999 -37.4 -242.3 -15.9
10.671 10.670 -16.900002 -269.5 -8.799999 -37.4 -242.3 -15.9
10.691 10.690 -16.900002 -269.5 -8.799999 -37.4 -242.3 -15.9
10.711 10.710 -16.900002 -269.5 -8.799999 -37.4 -242.3 -15.9
10.731 10.730 -16.900002 -269.5 -8.799999 -37.4 -242.3 -15.9
10.751 10.750 -16.900002 -269.5 -8.799999 -37.4 -242.3 -15.9
10.771 10.770 -17.000002 -269.5 -8.9 -37.4 -242.3 -15.9
10.791 10.790 -16.900002 -269.5 -8.9 -37.4 -242.3 -15.9
10.811 10.810 -16.900002 -269.5 -9.0 -37.4 -242.3 -15.9
10.831 10.830 -16.900002 -269.5 -9.0 -37.4 -242.3 -15.9
10.852 10.850 -16.900002 -269.5 -9.0 -37.4 -242.3 -15.9
10.871 10.870 -16.900002 -269.5 -9.0 -37.4 -242.3 -15.9
10.891 10.890 -16.900002 -269.5 -8.9 -37.4 -242.3 -15.9
10.911 10.910 -16.900002 -269.6 -9.0 -37.4 -242.3 -15.9
10.932 10.930 -16.900002 -269.5 -9.0 -37.4 -242.3 -15.9
10.951 10.950 -16.900002 -269.6 -9.0 -37.4 -242.3 -15.9
10.971 10.970 -17.000002 -269.6 -9.0 -37.4 -242.3 -15.9
10.991 10.990 -17.000002 -269.6 -9.0 -37.4 -242.3 -15.9
11.011 11.010 -16.900002 -269.5 -9.0 -37.4 -242.3 -15.9
11.031 11.030 -16.900002 -269.5 -9.0 -37.4 -242.3 -15.9
11.051 11.050 -16.900002 -269.6 -9.0 -37.4 -242.3 -15.9
11.071 11.070 -16.900002 -269.6 -9.0 -37.4 -242.3 -15.9
11.091 11.090 -16.900002 -269.6 -9.099999 -37.4 -242.3 -15.9
11.111 11.110 -16.900002 -269.6 -9.0 -37.4 -242.3 -15.9
11.131 11.130 -16.900002 -269.6 -9.0 -37.4 -242.3 -15.9
11.151 11.150 -16.900002 -269.6 -8.9 -37.4 -242.3 -15.9
11.171 11.170 -16.900002 -269.5 -9.0 -37.4 -242.3 -15.9
11.191 11.190 -16.900002 -269.5 -9.0 -37.4 -242.3 -15.9
11.211 11.210 -16.900002 -269.6 -9.0 -37.4 -242.3 -15.9
11.232 11.230 -16.900002 -269.6 -9.0 -37.4 -242.3 -15.9
11.251 11.250 -16.900002 -269.6 -9.0 -37.4 -242.3 -15.9
11.271 11.270 -17.000002 -269.6 -9.0 -37.4 -242.3 -15.9
11.291 11.290 -17.000002 -269.6 -9.0 -37.4 -242.3 -15.9
11.311 11.310 -17.000002 -269.5 -9.0 -37.4 -242.3 -15.9
11.331 11.330 -16.900002 -269.5 -9.099999 -37.4 -242.3 -15.9
11.351 11.350 -16.900002 -269.5 -9.0 -37.4 -242.3 -15.9
11.371 11.370 -17.000002 -269.5 -9.0 -37.4 -242.3 -15.9
11.391 11.390 -17.000002 -269.6 -8.9 -37.4 -242.3 -15.9
11.411 11.410 -17.100002 -269.6 -9.0 -37.4 -242.3 -15.9
11.431 11.430 -17.100002 -269.6 -9.0 -37.4 -242.3 -15.9
11.451 11.450 -17.100002 -269.6 -9.0 -37.4 -242.3 -15.9
11.471 11.470 -17.100002 -269.6 -9.0 -37.4 -242.3 -15.9
11.491 11.490 -17.2 -269.7 -9.0 -37.4 -242.3 -15.9
11.514 11.510 -17.2 -269.7 -9.0 -37.4 -242.3 -15.9
11.531 11.530 -17.2 -269.8 -9.0 -37.4 -242.3 -15.9
11.551 11.550 -17.2 -269.8 -9.099999 -37.4 -242.3 -15.9
11.571 11.570 -17.300001 -269.8 -9.099999 -37.4 -242.3 -15.9
11.591 11.590 -17.300001 -269.9 -9.099999 -37.4 -242.3 -15.9
11.611 11.610 -17.400002 -270.0 -9.099999 -37.4 -242.3 -15.9
11.631 11.630 -17.500002 -270.1 -9.0 -37.4 -242.3 -15.9
11.651 11.650 -17.600002 -270.2 -9.0 -37.4 -242.3 -15.9
11.671 11.670 -17.7 -270.4 -8.9 -37.4 -242.3 -15.9
11.691 11.690 -17.800001 -270.5 -8.9 -37.4 -242.3 -15.9
11.711 11.710 -17.900002 -270.6 -8.799999 -37.4 -242.3 -15.9
11.731 11.730 -18.000002 -270.8 -8.799999 -37.4 -242.3 -15.9
11.751 11.750 -18.2 -271.0 -8.7 -37.4 -242.3 -15.9
11.771 11.770 -18.300001 -271.1 -8.599999 -37.4 -242.3 -15.9
11.791 11.790 -18.500002 -271.3 -8.4 -37.4 -242.3 -15.9
11.811 11.810 -18.7 -271.6 -8.4 -37.4 -242.3 -15.9
11.831 11.830 -21.122 -272.832 -7.8749995 -39.5 -243.2 -15.4
11.851 11.850 -21.589 -273.435 -7.8149996 -39.5 -243.2 -15.4
11.874 11.870 -22.338 -274.151 -7.871 -39.5 -243.2 -15.4
11.891 11.890 -23.121 -275.416 -7.2959995 -39.5 -243.2 -15.4
11.911 11.910 -23.983 -276.305 -7.363 -39.5 -243.2 -15.4
11.930 11.930 -24.769001 -277.28198 -7.3929996 -39.5 -243.2 -15.4
11.950 11.950 -26.9 -278.61 -6.502 -39.5 -243.2 -15.4
11.970 11.970 -28.279999 -279.897 -7.4879994 -39.5 -243.2 -15.4
11.991 11.990 -29.559 -281.383 -6.394 -39.5 -243.2 -15.4
12.011 12.010 -33.109 -283.378 -5.3459997 -39.5 -243.2 -15.4
12.031 12.030 -36.605 -285.65 -6.7139997 -39.5 -243.2 -15.4
12.051 12.050 -38.563 -286.825 -5.0879993 -39.5 -243.2 -15.4
12.071 12.070 -41.836998 -288.123 -6.1239996 -39.5 -243.2 -15.4
12.091 12.090 -46.28 -289.335 -4.6989994 -39.5 -243.2 -15.4
12.111 12.110 -49.057 -290.36 -6.106 -39.5 -243.2 -15.4
12.131 12.130 -51.038002 -291.224 -5.5149994 -39.5 -243.2 -15.4
12.151 12.150 -52.056 -291.343 -7.2819996 -39.5 -243.2 -15.4
12.171 12.170 -54.163002 -291.787 -7.297 -39.5 -243.2 -15.4
12.191 12.190 -56.249 -291.742 -7.0109997 -39.5 -243.2 -15.4
12.211 12.210 -57.165 -291.766 -8.837 -39.5 -243.2 -15.4
12.231 12.230 -60.611 -292.04 -7.957 -39.5 -243.2 -15.4
12.251 12.250 -59.629997 -291.437 -7.9549994 -39.5 -243.2 -15.4
12.271 12.270 -60.017 -291.336 -7.0549994 -39.5 -243.2 -15.4
12.291 12.290 -59.564 -291.374 -6.4369993 -39.5 -243.2 -15.4
12.311 12.310 -60.431 -291.074 -6.441 -39.5 -243.2 -15.4
12.331 12.330 -60.575 -291.652 -3.7059994 -39.5 -243.2 -15.4
12.351 12.350 -61.101997 -291.30798 -5.533 -39.5 -243.2 -15.4
12.371 12.370 -60.302002 -291.13998 -5.832 -39.5 -243.2 -15.4
12.391 12.390 -60.111 -290.885 -4.0079994 -39.5 -243.2 -15.4
12.411 12.410 -60.902 -291.02 -5.5299997 -39.5 -243.2 -15.4
12.431 12.430 -59.867 -291.052 -4.306999 -39.5 -243.2 -15.4
12.451 12.450 -59.808 -290.703 -6.12 -39.5 -243.2 -15.4
12.471 12.470 -60.920998 -291.688 -5.5299997 -39.5 -243.2 -15.4
12.494 12.490 -60.712997 -291.741 -3.7459993 -39.5 -243.2 -15.4
12.511 12.510 -59.882 -291.887 -4.6429996 -39.5 -243.2 -15.4
12.531 12.530 -59.069 -291.251 -4.6469994 -39.5 -243.2 -15.4
12.551 12.550 -59.856003 -291.595 -4.106 -39.5 -243.2 -15.4
12.571 12.570 -59.041 -291.261 -5.2439995 -39.5 -243.2 -15.4
12.591 12.590 -59.512 -291.735 -4.488 -39.5 -243.2 -15.4
12.611 12.610 -58.976997 -291.194 -5.549 -39.5 -243.2 -15.4
12.631 12.630 -59.011 -291.367 -4.9019995 -39.5 -243.2 -15.4
12.651 12.650 -59.329002 -291.609 -4.754999 -39.5 -243.2 -15.4
12.671 12.670 -59.552002 -291.418 -5.2959995 -39.5 -243.2 -15.4
12.691 12.690 -59.4 -291.6 -5.5999994 -39.5 -243.2 -15.4
12.711 12.710 -59.7 -291.6 -5.5999994 -39.5 -243.2 -15.4
12.731 12.730 -60.0 -291.5 -5.5 -39.5 -243.2 -15.4
12.751 12.750 -60.2 -291.5 -5.3999996 -39.5 -243.2 -15.4
12.771 12.770 -60.4 -291.5 -5.3999996 -39.5 -243.2 -15.4
12.791 12.790 -60.5 -291.4 -5.299999 -39.5 -243.2 -15.4
12.811 12.810 -60.6 -291.4 -5.2 -39.5 -243.2 -15.4
12.831 12.830 -60.6 -291.4 -5.0 -39.5 -243.2 -15.4
12.851 12.850 -60.6 -291.4 -4.8999996 -39.5 -243.2 -15.4
12.871 12.870 -60.6 -291.4 -4.799999 -39.5 -243.2 -15.4
12.891 12.890 -60.5 -291.4 -4.799999 -39.5 -243.2 -15.4
12.911 12.910 -60.5 -291.4 -4.7 -39.5 -243.2 -15.4
12.931 12.930 -60.5 -291.4 -4.7 -39.5 -243.2 -15.4
12.951 12.950 -60.5 -291.4 -4.5999994 -39.5 -243.2 -15.4
12.971 12.970 -60.4 -291.4 -4.5999994 -39.5 -243.2 -15.4
12.991 12.990 -60.4 -291.4 -4.5999994 -39.5 -243.2 -15.4
13.011 13.010 -60.4 -291.4 -4.5999994 -39.5 -243.2 -15.4
13.031 13.030 -60.4 -291.4 -4.5999994 -39.5 -243.2 -15.4
13.051 13.050 -60.4 -291.4 -4.3999996 -39.5 -243.2 -15.4
13.071 13.070 -60.4 -291.4 -4.3999996 -39.5 -243.2 -15.4
13.091 13.090 -60.3 -291.4 -4.3999996 -39.5 -243.2 -15.4
13.111 13.110 -60.3 -291.4 -4.3999996 -39.5 -243.2 -15.4
13.131 13.130 -60.3 -291.4 -4.3999996 -39.5 -243.2 -15.4
13.151 13.150 -60.3 -291.4 -4.3999996 -39.5 -243.2 -15.4
13.171 13.170 -60.3 -291.4 -4.3999996 -39.5 -243.2 -15.4
13.191 13.190 -60.3 -291.3 -4.3999996 -39.5 -243.2 -15.4
13.211 13.210 -60.3 -291.3 -4.3999996 -39.5 -243.2 -15.4
13.232 13.230 -60.3 -291.4 -4.299999 -39.5 -243.2 -15.4
13.251 13.250 -60.3 -291.4 -4.299999 -39.5 -243.2 -15.4
13.271 13.270 -60.3 -291.4 -4.299999 -39.5 -243.2 -15.4
13.291 13.290 -60.2 -291.4 -4.3999996 -39.5 -243.2 -15.4
13.311 13.310 -60.2 -291.4 -4.299999 -39.5 -243.2 -15.4
13.331 13.330 -60.2 -291.4 -4.3999996 -39.5 -243.2 -15.4
13.351 13.350 -60.2 -291.4 -4.3999996 -39.5 -243.2 -15.4
13.371 13.370 -60.2 -291.4 -4.299999 -39.5 -243.2 -15.4
13.391 13.390 -60.1 -291.4 -4.299999 -39.5 -243.2 -15.4
13.411 13.410 -60.1 -291.4 -4.299999 -39.5 -243.2 -15.4
13.431 13.430 -60.0 -291.4 -4.299999 -39.5 -243.2 -15.4
13.451 13.450 -60.1 -291.4 -4.299999 -39.5 -243.2 -15.4
13.471 13.470 -60.0 -291.4 -4.299999 -39.5 -243.2 -15.4
13.490 13.490 -60.0 -291.4 -4.299999 -39.5 -243.2 -15.4
13.510 13.510 -60.0 -291.4 -4.299999 -39.5 -243.2 -15.4
13.530 13.530 -60.0 -291.4 -4.3999996 -39.5 -243.2 -15.4
13.550 13.550 -60.0 -291.4 -4.5 -39.5 -243.2 -15.4
13.570 13.570 -60.1 -291.4 -4.5 -39.5 -243.2 -15.4
13.591 13.590 -60.0 -291.5 -4.5 -39.5 -243.2 -15.4
13.610 13.610 -60.0 -291.5 -4.5 -39.5 -243.2 -15.4
13.630 13.630 -60.0 -291.5 -4.5 -39.5 -243.2 -15.4
13.650 13.650 -60.0 -291.5 -4.5 -39.5 -243.2 -15.4
13.671 13.670 -60.1 -291.6 -4.5 -39.5 -243.2 -15.4
13.691 13.690 -60.1 -291.6 -4.5999994 -39.5 -243.2 -15.4
13.711 13.710 -60.1 -291.6 -4.5 -39.5 -243.2 -15.4
13.731 13.730 -60.1 -291.6 -4.5999994 -39.5 -243.2 -15.4
13.751 13.750 -60.2 -291.6 -4.5999994 -39.5 -243.2 -15.4
13.771 13.770 -60.2 -291.7 -4.5999994 -39.5 -243.2 -15.4
13.791 13.790 -60.2 -291.7 -4.7 -39.5 -243.2 -15.4
13.811 13.810 -60.2 -291.6 -4.7 -39.5 -243.2 -15.4
13.831 13.830 -60.2 -291.6 -4.799999 -39.5 -243.2 -15.4
13.851 13.850 -60.2 -291.6 -4.799999 -39.5 -243.2 -15.4
13.871 13.870 -60.3 -291.7 -4.799999 -39.5 -243.2 -15.4
13.894 13.890 -60.3 -291.7 -4.799999 -39.5 -243.2 -15.4
13.911 13.910 -60.3 -291.7 -4.799999 -39.5 -243.2 -15.4
13.930 13.930 -60.3 -291.7 -4.799999 -39.5 -243.2 -15.4
13.950 13.950 -60.3 -291.7 -4.8999996 -39.5 -243.2 -15.4
13.970 13.970 -60.3 -291.7 -4.8999996 -39.5 -243.2 -15.4
13.990 13.990 -60.3 -291.8 -4.8999996 -39.5 -243.2 -15.4
14.011 14.010 -60.4 -291.8 -5.0 -39.5 -243.2 -15.4
14.031 14.030 -60.4 -291.8 -5.0 -39.5 -243.2 -15.4
14.051 14.050 -60.4 -291.8 -5.0 -39.5 -243.2 -15.4
14.071 14.070 -60.4 -291.8 -5.0 -39.5 -243.2 -15.4
14.091 14.090 -60.5 -291.8 -5.0 -39.5 -243.2 -15.4
14.111 14.110 -60.5 -291.9 -5.0 -39.5 -243.2 -15.4
14.131 14.130 -60.5 -291.9 -5.0 -39.5 -243.2 -15.4
14.151 14.150 -60.5 -291.9 -4.8999996 -39.5 -243.2 -15.4
14.171 14.170 -60.5 -291.9 -4.8999996 -39.5 -243.2 -15.4
14.191 14.190 -60.5 -291.9 -4.8999996 -39.5 -243.2 -15.4
14.211 14.210 -60.5 -292.0 -5.0 -39.5 -243.2 -15.4
14.231 14.230 -60.5 -292.0 -5.0 -39.5 -243.2 -15.4
14.251 14.250 -60.5 -292.0 -5.0 -39.5 -243.2 -15.4
14.272 14.270 -60.4 -292.0 -5.0 -39.5 -243.2 -15.4
14.291 14.290 -60.4 -292.0 -5.0 -39.5 -243.2 -15.4
14.311 14.310 -60.4 -292.0 -5.0 -39.5 -243.2 -15.4
14.331 14.330 -60.4 -292.1 -5.0 -39.5 -243.2 -15.4
14.351 14.350 -60.4 -292.1 -5.0 -39.5 -243.2 -15.4
14.371 14.370 -60.4 -292.1 -5.0 -39.5 -243.2 -15.4
14.391 14.390 -60.4 -292.1 -5.0 -39.5 -243.2 -15.4
14.411 14.410 -60.4 -292.2 -4.8999996 -39.5 -243.2 -15.4
14.431 14.430 -60.4 -292.2 -4.8999996 -39.5 -243.2 -15.4
14.451 14.450 -60.4 -292.3 -4.8999996 -39.5 -243.2 -15.4
14.471 14.470 -60.4 -292.3 -4.8999996 -39.5 -243.2 -15.4
14.491 14.490 -60.4 -292.3 -4.8999996 -39.5 -243.2 -15.4
14.511 14.510 -60.4 -292.3 -5.0 -39.5 -243.2 -15.4
14.531 14.530 -60.4 -292.3 -5.0 -39.5 -243.2 -15.4
14.551 14.550 -60.4 -292.3 -5.0 -39.5 -243.2 -15.4
14.571 14.570 -60.4 -292.3 -5.0 -39.5 -243.2 -15.4
14.591 14.590 -60.4 -292.3 -4.8999996 -39.5 -243.2 -15.4
14.611 14.610 -60.4 -292.3 -4.8999996 -39.5 -243.2 -15.4
14.631 14.630 -60.4 -292.4 -4.8999996 -39.5 -243.2 -15.4
14.651 14.651 -60.4 -292.4 -5.0 -39.5 -243.2 -15.4
14.671 14.670 -60.4 -292.4 -5.0 -39.5 -243.2 -15.4
14.691 14.690 -60.4 -292.4 -5.0 -39.5 -243.2 -15.4
14.712 14.710 -60.3 -292.4 -5.0999994 -39.5 -243.2 -15.4
14.731 14.730 -60.4 -292.4 -5.0999994 -39.5 -243.2 -15.4
14.751 14.750 -60.4 -292.4 -5.0999994 -39.5 -243.2 -15.4
14.771 14.770 -60.4 -292.4 -5.0999994 -39.5 -243.2 -15.4
14.791 14.790 -60.4 -292.4 -5.0999994 -39.5 -243.2 -15.4
14.811 14.810 -60.4 -292.4 -5.0999994 -39.5 -243.2 -15.4
14.831 14.830 -60.4 -292.4 -5.0999994 -39.5 -243.2 -15.4
14.854 14.850 -60.4 -292.4 -5.2 -39.5 -243.2 -15.4
14.873 14.871 -60.4 -292.4 -5.2 -39.5 -243.2 -15.4
14.891 14.890 -60.5 -292.4 -5.0999994 -39.5 -243.2 -15.4
14.910 14.910 -60.5 -292.4 -5.2 -39.5 -243.2 -15.4
14.931 14.930 -60.5 -292.4 -5.0999994 -39.5 -243.2 -15.4
14.950 14.950 -60.5 -292.3 -5.0999994 -39.5 -243.2 -15.4
14.970 14.970 -60.5 -292.3 -5.2 -39.5 -243.2 -15.4
14.991 14.990 -60.5 -292.3 -5.2 -39.5 -243.2 -15.4
15.011 15.010 -60.6 -292.3 -5.2 -39.5 -243.2 -15.4
15.031 15.030 -60.5 -292.3 -5.299999 -39.5 -243.2 -15.4
15.051 15.050 -60.6 -292.3 -5.299999 -39.5 -243.2 -15.4
15.071 15.070 -60.6 -292.3 -5.299999 -39.5 -243.2 -15.4
15.091 15.090 -60.6 -292.3 -5.2 -39.5 -243.2 -15.4
15.111 15.110 -60.6 -292.3 -5.2 -39.5 -243.2 -15.4
15.131 15.130 -60.7 -292.3 -5.2 -39.5 -243.2 -15.4
15.151 15.150 -60.6 -292.3 -5.0999994 -39.5 -243.2 -15.4
15.171 15.170 -60.7 -292.3 -5.0999994 -39.5 -243.2 -15.4
15.191 15.190 -60.7 -292.3 -5.0999994 -39.5 -243.2 -15.4
15.211 15.210 -60.6 -292.3 -5.0999994 -39.5 -243.2 -15.4
15.231 15.230 -60.6 -292.2 -5.0 -39.5 -243.2 -15.4
15.251 15.250 -60.6 -292.2 -5.0 -39.5 -243.2 -15.4
15.271 15.270 -60.6 -292.2 -4.8999996 -39.5 -243.2 -15.4
15.291 15.290 -60.6 -292.2 -4.8999996 -39.5 -243.2 -15.4
15.311 15.310 -60.6 -292.2 -4.8999996 -39.5 -243.2 -15.4
15.332 15.330 -60.6 -292.2 -4.8999996 -39.5 -243.2 -15.4
15.351 15.350 -60.6 -292.2 -4.799999 -39.5 -243.2 -15.4
15.372 15.370 -60.6 -292.2 -4.8999996 -39.5 -243.2 -15.4
15.391 15.390 -60.6 -292.2 -4.8999996 -39.5 -243.2 -15.4
15.411 15.410 -60.7 -292.2 -4.8999996 -39.5 -243.2 -15.4
15.431 15.430 -60.7 -292.2 -4.8999996 -39.5 -243.2 -15.4
15.451 15.450 -60.7 -292.2 -4.8999996 -39.5 -243.2 -15.4
15.471 15.470 -60.7 -292.2 -4.8999996 -39.5 -243.2 -15.4
15.491 15.490 -60.7 -292.2 -5.0 -39.5 -243.2 -15.4
15.511 15.510 -60.7 -292.2 -5.0 -39.5 -243.2 -15.4
15.534 15.530 -60.7 -292.2 -4.8999996 -39.5 -243.2 -15.4
15.551 15.550 -60.7 -292.2 -4.8999996 -39.5 -243.2 -15.4
15.571 15.570 -60.8 -292.2 -4.8999996 -39.5 -243.2 -15.4
15.591 15.590 -60.8 -292.2 -4.8999996 -39.5 -243.2 -15.4
15.611 15.610 -60.8 -292.2 -4.799999 -39.5 -243.2 -15.4
15.631 15.630 -60.8 -292.1 -4.799999 -39.5 -243.2 -15.4
15.651 15.650 -60.8 -292.1 -4.7 -39.5 -243.2 -15.4
15.671 15.670 -60.8 -292.1 -4.7 -39.5 -243.2 -15.4
15.691 15.690 -60.8 -292.1 -4.7 -39.5 -243.2 -15.4
15.711 15.710 -60.8 -292.1 -4.7 -39.5 -243.2 -15.4
15.731 15.730 -60.8 -292.1 -4.7 -39.5 -243.2 -15.4
15.751 15.750 -60.9 -292.1 -4.7 -39.5 -243.2 -15.4
15.771 15.770 -60.9 -292.1 -4.7 -39.5 -243.2 -15.4
15.791 15.790 -60.9 -292.1 -4.7 -39.5 -243.2 -15.4
15.811 15.810 -60.9 -292.1 -4.799999 -39.5 -243.2 -15.4
15.833 15.830 -60.9 -292.1 -4.8999996 -39.5 -243.2 -15.4
15.851 15.850 -60.9 -292.1 -4.8999996 -39.5 -243.2 -15.4
15.871 15.870 -60.9 -292.1 -5.0 -39.5 -243.2 -15.4
15.891 15.890 -60.9 -292.1 -5.0 -39.5 -243.2 -15.4
15.911 15.910 -60.9 -292.1 -5.0 -39.5 -243.2 -15.4
15.931 15.930 -60.9 -292.1 -5.0999994 -39.5 -243.2 -15.4
15.951 15.950 -60.9 -292.0 -5.0999994 -39.5 -243.2 -15.4
15.971 15.970 -60.9 -292.0 -5.0 -39.5 -243.2 -15.4
15.991 15.990 -60.9 -292.0 -5.0 -39.5 -243.2 -15.4
16.011 16.010 -61.0 -292.0 -4.8999996 -39.5 -243.2 -15.4
16.031 16.030 -60.9 -292.0 -4.8999996 -39.5 -243.2 -15.4
16.051 16.050 -60.9 -291.9 -4.8999996 -39.5 -243.2 -15.4
16.071 16.070 -60.9 -291.9 -4.8999996 -39.5 -243.2 -15.4
16.091 16.090 -60.9 -291.9 -4.7 -39.5 -243.2 -15.4
16.112 16.110 -61.0 -291.9 -4.7 -39.5 -243.2 -15.4
16.132 16.130 -60.9 -291.9 -4.5999994 -39.5 -243.2 -15.4
16.151 16.150 -60.9 -291.8 -4.5999994 -39.5 -243.2 -15.4
16.171 16.170 -60.8 -291.8 -4.5999994 -39.5 -243.2 -15.4
16.191 16.190 -60.8 -291.8 -4.3999996 -39.5 -243.2 -15.4
16.211 16.210 -60.8 -291.8 -4.2 -39.5 -243.2 -15.4
16.231 16.230 -60.7 -291.8 -4.0 -39.5 -243.2 -15.4
16.251 16.250 -60.6 -291.7 -3.7999992 -39.5 -243.2 -15.4
16.271 16.270 -60.5 -291.7 -3.5999994 -39.5 -243.2 -15.4
16.291 16.290 -59.596 -291.415 -2.651 -39.5 -243.2 -15.4
16.311 16.310 -57.359 -290.443 -0.47999954 -39.5 -243.2 -15.4
16.331 16.330 -56.398003 -289.725 0.44500065 -39.5 -243.2 -15.4
16.351 16.350 -55.010002 -288.758 2.8470001 -39.5 -243.2 -15.4
16.370 16.370 -53.414 -288.25 3.0279999 -39.5 -243.2 -15.4
16.391 16.390 -52.453 -287.62698 4.6970005 -39.5 -243.2 -15.4
16.414 16.410 -51.353 -286.472 4.918001 -39.5 -243.2 -15.4
16.431 16.430 -49.632 -285.981 4.771 -39.5 -243.2 -15.4
16.451 16.450 -48.568 -284.41998 6.6100006 -39.5 -243.2 -15.4
16.471 16.470 -47.545998 -283.665 7.974001 -39.5 -243.2 -15.4
16.491 16.490 -45.772 -282.581 7.6870003 -39.5 -243.2 -15.4
16.512 16.511 -44.286 -282.581 8.725 -39.5 -243.2 -15.4
16.531 16.530 -44.062 -281.998 8.593 -39.5 -243.2 -15.4
16.551 16.550 -43.158 -281.18298 10.137001 -39.5 -243.2 -15.4
16.571 16.570 -43.047 -280.512 12.554001 -39.5 -243.2 -15.4
16.592 16.590 -41.816 -280.968 9.217001 -39.5 -243.2 -15.4
16.611 16.610 -39.903 -279.684 11.043001 -39.5 -243.2 -15.4
16.631 16.630 -38.204 -280.053 10.2630005 -39.5 -243.2 -15.4
16.651 16.650 -36.514 -278.438 10.9279995 -39.5 -243.2 -15.4
16.671 16.670 -36.154 -278.541 11.280001 -39.5 -243.2 -15.4
16.691 16.690 -35.494 -277.847 10.745001 -39.5 -243.2 -15.4
16.714 16.710 -34.627 -277.944 10.499001 -39.5 -243.2 -15.4
16.731 16.730 -33.253 -276.829 11.4279995 -39.5 -243.2 -15.4
16.751 16.750 -32.058 -276.103 8.546 -39.5 -243.2 -15.4
16.771 16.770 -32.082 -275.675 11.205 -39.5 -243.2 -15.4
16.791 16.790 -32.8 -276.249 10.043001 -39.5 -243.2 -15.4
16.811 16.810 -32.554 -276.572 11.219 -39.5 -243.2 -15.4
16.831 16.830 -32.287 -276.712 11.529001 -39.5 -243.2 -15.4
16.851 16.850 -32.481 -276.218 10.114 -39.5 -243.2 -15.4
16.872 16.870 -32.317 -276.272 12.384001 -39.5 -243.2 -15.4
16.891 16.890 -32.498 -275.768 10.422001 -39.5 -243.2 -15.4
16.911 16.910 -32.273 -276.067 11.008001 -39.5 -243.2 -15.4
16.931 16.930 -31.809 -275.655 11.831001 -39.5 -243.2 -15.4
16.952 16.950 -32.551 -275.667 12.358 -39.5 -243.2 -15.4
16.971 16.970 -33.015 -277.029 10.776001 -39.5 -243.2 -15.4
16.991 16.990 -32.606 -275.836 12.063 -39.5 -243.2 -15.4
17.012 17.010 -32.611 -275.962 11.305 -39.5 -243.2 -15.4
17.031 17.030 -33.08 -276.10498 11.547001 -39.5 -243.2 -15.4
17.051 17.050 -33.085 -276.138 11.535 -39.5 -243.2 -15.4
17.071 17.070 -32.95 -275.835 12.098 -39.5 -243.2 -15.4
17.091 17.090 -33.11 -276.15 11.903 -39.5 -243.2 -15.4
17.111 17.110 -33.063 -276.21698 11.662001 -39.5 -243.2 -15.4
17.132 17.130 -33.434 -276.425 11.971001 -39.5 -243.2 -15.4
17.151 17.150 -33.027 -276.248 11.621 -39.5 -243.2 -15.4
17.171 17.170 -32.9 -276.2 11.5 -39.5 -243.2 -15.4
17.191 17.190 -32.6 -276.0 11.6 -39.5 -243.2 -15.4
17.211 17.210 -32.4 -275.9 11.5 -39.5 -243.2 -15.4
17.231 17.230 -32.3 -275.9 11.6 -39.5 -243.2 -15.4
17.251 17.250 -32.2 -275.8 11.5 -39.5 -243.2 -15.4
17.271 17.270 -32.1 -275.7 11.5 -39.5 -243.2 -15.4
17.291 17.290 -32.1 -275.7 11.6 -39.5 -243.2 -15.4
17.311 17.310 -32.0 -275.6 11.6 -39.5 -243.2 -15.4
17.331 17.330 -32.1 -275.6 11.6 -39.5 -243.2 -15.4
17.351 17.350 -32.1 -275.7 11.700001 -39.5 -243.2 -15.4
17.371 17.370 -32.2 -275.7 11.6 -39.5 -243.2 -15.4
17.391 17.390 -32.2 -275.7 11.700001 -39.5 -243.2 -15.4
17.411 17.410 -32.3 -275.7 11.700001 -39.5 -243.2 -15.4
17.431 17.430 -32.3 -275.7 11.700001 -39.5 -243.2 -15.4
17.451 17.450 -32.4 -275.7 11.700001 -39.5 -243.2 -15.4
17.471 17.470 -32.4 -275.7 11.800001 -39.5 -243.2 -15.4
17.491 17.490 -32.5 -275.8 11.800001 -39.5 -243.2 -15.4
17.511 17.510 -32.6 -275.8 11.800001 -39.5 -243.2 -15.4
17.531 17.530 -32.7 -275.9 11.800001 -39.5 -243.2 -15.4
17.551 17.550 -32.7 -275.9 11.800001 -39.5 -243.2 -15.4
17.571 17.570 -32.8 -275.9 11.800001 -39.5 -243.2 -15.4
17.591 17.590 -32.9 -276.0 11.800001 -39.5 -243.2 -15.4
17.611 17.610 -32.9 -276.0 11.800001 -39.5 -243.2 -15.4
17.631 17.630 -32.9 -276.0 11.800001 -39.5 -243.2 -15.4
17.651 17.650 -33.0 -276.0 11.9 -39.5 -243.2 -15.4
17.671 17.670 -33.0 -276.1 11.9 -39.5 -243.2 -15.4
17.692 17.690 -33.0 -276.1 11.9 -39.5 -243.2 -15.4
17.710 17.710 -33.0 -276.1 11.9 -39.5 -243.2 -15.4
17.730 17.730 -33.0 -276.1 11.800001 -39.5 -243.2 -15.4
17.751 17.750 -33.0 -276.1 11.800001 -39.5 -243.2 -15.4
17.771 17.770 -33.0 -276.2 11.700001 -39.5 -243.2 -15.4
17.791 17.790 -33.1 -276.2 11.700001 -39.5 -243.2 -15.4
17.811 17.810 -33.1 -276.2 11.700001 -39.5 -243.2 -15.4
17.831 17.830 -33.1 -276.2 11.700001 -39.5 -243.2 -15.4
17.851 17.850 -33.1 -276.2 11.800001 -39.5 -243.2 -15.4
17.871 17.870 -33.2 -276.2 11.700001 -39.5 -243.2 -15.4
17.891 17.890 -33.2 -276.2 11.700001 -39.5 -243.2 -15.4
17.911 17.910 -33.2 -276.2 11.6 -39.5 -243.2 -15.4
17.931 17.930 -33.2 -276.1 11.6 -39.5 -243.2 -15.4
17.951 17.950 -33.3 -276.1 11.700001 -39.5 -243.2 -15.4
17.971 17.970 -33.3 -276.1 11.700001 -39.5 -243.2 -15.4
17.994 17.990 -33.3 -276.1 11.700001 -39.5 -243.2 -15.4
18.011 18.010 -33.3 -276.1 11.700001 -39.5 -243.2 -15.4
18.031 18.030 -33.3 -276.1 11.700001 -39.5 -243.2 -15.4
18.051 18.050 -33.3 -276.1 11.6 -39.5 -243.2 -15.4
18.071 18.070 -33.3 -276.1 11.6 -39.5 -243.2 -15.4
18.091 18.090 -33.3 -276.1 11.6 -39.5 -243.2 -15.4
18.111 18.110 -33.3 -276.1 11.700001 -39.5 -243.2 -15.4
18.131 18.130 -33.3 -276.1 11.700001 -39.5 -243.2 -15.4
18.151 18.150 -33.3 -276.1 11.700001 -39.5 -243.2 -15.4
18.171 18.170 -33.3 -276.0 11.800001 -39.5 -243.2 -15.4
18.193 18.190 -33.3 -276.0 11.800001 -39.5 -243.2 -15.4
18.211 18.210 -33.3 -276.0 11.800001 -39.5 -243.2 -15.4
18.231 18.230 -33.3 -276.0 11.800001 -39.5 -243.2 -15.4
18.251 18.250 -33.3 -276.1 11.800001 -39.5 -243.2 -15.4
18.271 18.270 -33.3 -276.0 11.800001 -39.5 -243.2 -15.4
18.293 18.290 -33.3 -276.0 11.700001 -39.5 -243.2 -15.4
18.311 18.310 -33.3 -276.0 11.800001 -39.5 -243.2 -15.4
18.331 18.330 -33.3 -276.0 11.800001 -39.5 -243.2 -15.4
18.351 18.350 -33.4 -276.0 11.800001 -39.5 -243.2 -15.4
18.371 18.370 -33.4 -276.0 11.9 -39.5 -243.2 -15.4
18.391 18.390 -33.4 -276.0 11.9 -39.5 -243.2 -15.4
18.411 18.410 -33.4 -275.9 12.0 -39.5 -243.2 -15.4
18.432 18.430 -33.3 -276.0 11.9 -39.5 -243.2 -15.4
18.451 18.450 -33.3 -275.9 11.9 -39.5 -243.2 -15.4
18.471 18.470 -33.3 -276.0 12.0 -39.5 -243.2 -15.4
18.492 18.490 -33.3 -276.0 12.1 -39.5 -243.2 -15.4
18.511 18.510 -33.3 -276.0 12.1 -39.5 -243.2 -15.4
18.531 18.530 -33.3 -276.0 12.1 -39.5 -243.2 -15.4
18.551 18.550 -33.3 -276.0 12.200001 -39.5 -243.2 -15.4
18.574 18.570 -33.3 -276.0 12.300001 -39.5 -243.2 -15.4
18.591 18.590 -33.3 -276.0 12.300001 -39.5 -243.2 -15.4
18.611 18.610 -33.3 -276.0 12.300001 -39.5 -243.2 -15.4
18.631 18.630 -33.3 -276.0 12.4 -39.5 -243.2 -15.4
18.651 18.650 -33.4 -276.0 12.5 -39.5 -243.2 -15.4
18.671 18.670 -33.4 -276.0 12.6 -39.5 -243.2 -15.4
18.691 18.690 -33.4 -276.0 12.6 -39.5 -243.2 -15.4
18.711 18.710 -33.4 -276.0 12.5 -39.5 -243.2 -15.4
18.731 18.730 -33.4 -275.9 12.5 -39.5 -243.2 -15.4
18.751 18.750 -33.4 -275.9 12.5 -39.5 -243.2 -15.4
18.771 18.770 -33.4 -275.9 12.5 -39.5 -243.2 -15.4
18.791 18.790 -33.4 -275.9 12.4 -39.5 -243.2 -15.4
18.811 18.810 -33.4 -275.9 12.4 -39.5 -243.2 -15.4
18.831 18.830 -33.4 -275.9 12.4 -39.5 -243.2 -15.4
18.851 18.850 -33.4 -275.9 12.4 -39.5 -243.2 -15.4
18.875 18.870 -33.4 -275.9 12.5 -39.5 -243.2 -15.4
18.891 18.890 -33.4 -275.9 12.5 -39.5 -243.2 -15.4
18.911 18.910 -33.4 -275.9 12.4 -39.5 -243.2 -15.4
18.931 18.930 -33.4 -275.9 12.4 -39.5 -243.2 -15.4
18.951 18.950 -33.4 -275.9 12.5 -39.5 -243.2 -15.4
18.971 18.970 -33.4 -275.8 12.4 -39.5 -243.2 -15.4
18.991 18.990 -33.4 -275.8 12.5 -39.5 -243.2 -15.4
19.011 19.010 -33.4 -275.9 12.5 -39.5 -243.2 -15.4
19.031 19.030 -33.4 -275.9 12.6 -39.5 -243.2 -15.4
19.051 19.050 -33.4 -275.9 12.6 -39.5 -243.2 -15.4
19.071 19.070 -33.4 -275.9 12.5 -39.5 -243.2 -15.4
19.091 19.090 -33.3 -275.9 12.6 -39.5 -243.2 -15.4
19.112 19.110 -33.3 -275.9 12.5 -39.5 -243.2 -15.4
19.131 19.130 -33.3 -275.9 12.5 -39.5 -243.2 -15.4
19.151 19.150 -33.3 -275.9 12.5 -39.5 -243.2 -15.4
19.173 19.170 -33.3 -275.9 12.4 -39.5 -243.2 -15.4
19.191 19.190 -33.3 -275.9 12.4 -39.5 -243.2 -15.4
19.211 19.210 -33.3 -275.9 12.5 -39.5 -243.2 -15.4
19.231 19.230 -33.4 -275.9 12.4 -39.5 -243.2 -15.4
19.251 19.250 -33.3 -275.9 12.4 -39.5 -243.2 -15.4
19.271 19.270 -33.3 -275.9 12.4 -39.5 -243.2 -15.4
19.291 19.290 -33.3 -275.9 12.4 -39.5 -243.2 -15.4
19.311 19.310 -33.3 -275.9 12.5 -39.5 -243.2 -15.4
19.331 19.330 -33.3 -275.9 12.5 -39.5 -243.2 -15.4
19.351 19.350 -33.3 -275.9 12.5 -39.5 -243.2 -15.4
19.371 19.370 -33.3 -275.9 12.6 -39.5 -243.2 -15.4
19.391 19.390 -33.3 -275.9 12.6 -39.5 -243.2 -15.4
19.411 19.410 -33.3 -275.9 12.700001 -39.5 -243.2 -15.4
19.431 19.430 -33.3 -275.9 12.700001 -39.5 -243.2 -15.4
19.451 19.450 -33.4 -275.9 12.700001 -39.5 -243.2 -15.4
19.472 19.470 -33.4 -276.0 12.800001 -39.5 -243.2 -15.4
19.491 19.490 -33.4 -276.0 12.800001 -39.5 -243.2 -15.4
19.511 19.510 -33.4 -276.0 12.9 -39.5 -243.2 -15.4
19.531 19.530 -33.4 -276.0 12.9 -39.5 -243.2 -15.4
19.551 19.550 -33.4 -276.0 12.9 -39.5 -243.2 -15.4
19.571 19.570 -33.4 -276.0 13.0 -39.5 -243.2 -15.4
19.591 19.590 -33.5 -276.0 13.0 -39.5 -243.2 -15.4
19.611 19.610 -33.5 -276.0 13.0 -39.5 -243.2 -15.4
19.631 19.630 -33.5 -275.9 13.1 -39.5 -243.2 -15.4
19.652 19.650 -33.5 -275.9 13.1 -39.5 -243.2 -15.4
19.671 19.670 -33.4 -275.9 13.1 -39.5 -243.2 -15.4
19.692 19.690 -33.5 -275.9 13.1 -39.5 -243.2 -15.4
19.711 19.710 -33.4 -275.9 13.200001 -39.5 -243.2 -15.4
19.731 19.730 -33.5 -275.9 13.300001 -39.5 -243.2 -15.4
19.751 19.750 -33.4 -275.9 13.300001 -39.5 -243.2 -15.4
19.774 19.770 -33.4 -275.9 13.300001 -39.5 -243.2 -15.4
19.791 19.790 -33.4 -275.9 13.300001 -39.5 -243.2 -15.4
19.811 19.810 -33.4 -275.8 13.300001 -39.5 -243.2 -15.4
19.831 19.830 -33.5 -275.9 13.4 -39.5 -243.2 -15.4
19.851 19.850 -33.5 -275.8 13.4 -39.5 -243.2 -15.4
19.872 19.870 -33.4 -275.8 13.5 -39.5 -243.2 -15.4
19.891 19.890 -33.5 -275.8 13.5 -39.5 -243.2 -15.4
19.911 19.910 -33.4 -275.8 13.5 -39.5 -243.2 -15.4
19.931 19.930 -33.4 -275.8 13.4 -39.5 -243.2 -15.4
19.951 19.950 -33.4 -275.8 13.4 -39.5 -243.2 -15.4
19.971 19.970 -33.4 -275.8 13.4 -39.5 -243.2 -15.4
19.991 19.990 -33.4 -275.8 13.4 -39.5 -243.2 -15.4
20.011 20.010 -33.5 -275.8 13.4 -39.5 -243.2 -15.4
20.031 20.030 -33.5 -275.8 13.4 -39.5 -243.2 -15.4
20.053 20.050 -33.4 -275.8 13.4 -39.5 -243.2 -15.4
20.071 20.070 -33.4 -275.7 13.4 -39.5 -243.2 -15.4
20.091 20.090 -33.4 -275.7 13.4 -39.5 -243.2 -15.4
20.111 20.110 -33.4 -275.7 13.5 -39.5 -243.2 -15.4
20.131 20.130 -33.4 -275.7 13.4 -39.5 -243.2 -15.4
20.151 20.150 -33.4 -275.7 13.5 -39.5 -243.2 -15.4
20.171 20.170 -33.5 -275.7 13.5 -39.5 -243.2 -15.4
20.191 20.190 -33.4 -275.7 13.5 -39.5 -243.2 -15.4
20.211 20.210 -33.4 -275.7 13.5 -39.5 -243.2 -15.4
20.231 20.230 -33.4 -275.7 13.6 -39.5 -243.2 -15.4
20.251 20.250 -33.4 -275.8 13.6 -39.5 -243.2 -15.4
20.271 20.270 -33.4 -275.7 13.6 -39.5 -243.2 -15.4
20.291 20.290 -33.4 -275.7 13.6 -39.5 -243.2 -15.4
20.311 20.310 -33.4 -275.8 13.6 -39.5 -243.2 -15.4
20.331 20.330 -33.4 -275.8 13.6 -39.5 -243.2 -15.4
20.351 20.350 -33.4 -275.8 13.700001 -39.5 -243.2 -15.4
20.371 20.370 -33.4 -275.8 13.700001 -39.5 -243.2 -15.4
20.391 20.390 -33.4 -275.8 13.800001 -39.5 -243.2 -15.4
20.411 20.410 -33.4 -275.8 13.800001 -39.5 -243.2 -15.4
20.431 20.430 -33.3 -275.8 13.800001 -39.5 -243.2 -15.4
20.451 20.450 -33.3 -275.8 13.800001 -39.5 -243.2 -15.4
20.471 20.470 -33.3 -275.8 13.800001 -39.5 -243.2 -15.4
20.491 20.490 -33.3 -275.8 13.800001 -39.5 -243.2 -15.4
20.511 20.510 -33.3 -275.7 13.9 -39.5 -243.2 -15.4
20.532 20.530 -33.3 -275.7 14.0 -39.5 -243.2 -15.4
20.551 20.550 -33.3 -275.7 14.0 -39.5 -243.2 -15.4
20.571 20.570 -33.2 -275.6 14.1 -39.5 -243.2 -15.4
20.591 20.590 -33.2 -275.6 14.300001 -39.5 -243.2 -15.4
20.611 20.610 -33.1 -275.6 14.300001 -39.5 -243.2 -15.4
20.631 20.630 -33.0 -275.6 14.5 -39.5 -243.2 -15.4
20.651 20.650 -33.0 -275.5 14.6 -39.5 -243.2 -15.4
20.671 20.670 -32.9 -275.4 14.700001 -39.5 -243.2 -15.4
20.691 20.690 -32.9 -275.3 14.9 -39.5 -243.2 -15.4
20.711 20.710 -32.8 -275.3 15.1 -39.5 -243.2 -15.4
20.735 20.730 -32.7 -275.2 15.300001 -39.5 -243.2 -15.4
20.751 20.750 -32.6 -275.0 15.5 -39.5 -243.2 -15.4
20.771 20.770 -32.5 -274.9 15.800001 -39.5 -243.2 -15.4
20.791 20.790 -32.243 -274.40298 16.591 -39.5 -243.2 -15.4
20.811 20.810 -31.487999 -273.023 18.92 -39.5 -243.2 -15.4
20.831 20.830 -35.682 -268.323 23.878 -57.2 -237.6 -13.4
20.851 20.850 -32.496002 -267.713 26.371 -57.2 -237.6 -13.4
20.871 20.870 -31.313002 -266.651 27.727 -57.2 -237.6 -13.4
20.891 20.890 -30.381 -264.987 31.191 -57.2 -237.6 -13.4
20.911 20.910 -29.112001 -263.80002 30.657999 -57.2 -237.6 -13.4
20.931 20.930 -27.381 -257.508 33.251 -57.2 -237.6 -13.4
20.951 20.950 -26.0 -254.363 35.556 -57.2 -237.6 -13.4
20.971 20.970 -24.061 -250.48001 35.475 -57.2 -237.6 -13.4
20.991 20.990 -23.305002 -246.57199 37.642 -39.4 -221.7 -13.0
21.011 21.010 -22.54 -242.449 36.887 -54.657 -235.328 -13.342
21.034 21.030 -20.961002 -236.91301 37.934002 -54.657 -235.328 -13.342
21.051 21.050 -20.437 -232.101 36.202 -54.657 -235.328 -13.342
21.071 21.070 -19.496002 -227.27899 34.42 -39.4 -221.7 -13.0
21.092 21.090 -19.768002 -223.697 31.697002 -54.657 -235.328 -13.342
21.112 21.110 -19.268002 -219.838 29.262001 -54.657 -235.328 -13.342
21.131 21.130 -18.95 -220.06 29.892002 -54.657 -235.328 -13.342
21.151 21.150 -19.998001 -219.121 29.592 -54.657 -235.328 -13.342
21.171 21.170 -17.757 -220.369 29.621002 -54.657 -235.328 -13.342
21.191 21.190 -18.273003 -219.643 29.621002 -54.657 -235.328 -13.342
21.211 21.210 -18.564003 -220.955 30.247002 -54.657 -235.328 -13.342
21.231 21.230 -18.248001 -220.407 29.948002 -54.657 -235.328 -13.342
21.251 21.250 -17.955002 -220.713 29.956001 -54.657 -235.328 -13.342
21.271 21.270 -16.809002 -220.01001 29.972 -54.657 -235.328 -13.342
21.291 21.290 -18.208 -219.685 30.585 -54.657 -235.328 -13.342
21.311 21.310 -17.116001 -219.688 31.838001 -54.657 -235.328 -13.342
21.331 21.330 -17.278 -218.938 28.746002 -54.657 -235.328 -13.342
21.351 21.350 -17.296001 -217.466 30.301003 -54.657 -235.328 -13.342
21.370 21.370 -18.066002 -218.087 28.448002 -54.657 -235.328 -13.342
21.390 21.390 -17.221 -217.264 28.768002 -54.657 -235.328 -13.342
21.410 21.410 -16.624 -216.923 28.163002 -54.657 -235.328 -13.342
21.430 21.430 -16.878002 -216.718 27.248001 -54.657 -235.328 -13.342
21.450 21.450 -17.123001 -217.343 26.029 -54.657 -235.328 -13.342
21.470 21.470 -16.905003 -216.578 28.188 -54.657 -235.328 -13.342
21.490 21.490 -17.247002 -216.948 30.018002 -54.657 -235.328 -13.342
21.511 21.510 -16.911003 -216.099 27.917 -54.657 -235.328 -13.342
21.532 21.530 -16.912003 -216.723 27.336002 -54.657 -235.328 -13.342
21.551 21.550 -16.929 -215.781 27.939 -54.657 -235.328 -13.342
21.571 21.570 -16.921001 -216.226 27.066002 -54.657 -235.328 -13.342
21.592 21.590 -17.237003 -215.899 27.796001 -54.657 -235.328 -13.342
21.611 21.610 -16.593002 -216.672 28.115002 -54.657 -235.328 -13.342
21.631 21.630 -17.103 -216.593 27.878002 -54.657 -235.328 -13.342
21.651 21.650 -16.530003 -216.448 27.657001 -54.657 -235.328 -13.342
21.670 21.670 -17.457 -217.828 28.658 -54.657 -235.328 -13.342
21.690 21.690 -17.357002 -217.528 28.558002 -54.657 -235.328 -13.342
21.711 21.710 -17.357002 -217.42801 28.458 -54.657 -235.328 -13.342
21.731 21.730 -17.257 -217.228 28.358002 -54.657 -235.328 -13.342
21.751 21.750 -17.157001 -217.128 28.358002 -54.657 -235.328 -13.342
21.771 21.770 -17.157001 -217.028 28.258 -54.657 -235.328 -13.342
21.791 21.790 -17.057003 -216.828 28.158 -54.657 -235.328 -13.342
21.811 21.810 -17.057003 -216.728 28.058002 -54.657 -235.328 -13.342
21.831 21.830 -17.057003 -216.528 27.958 -54.657 -235.328 -13.342
21.851 21.850 -16.957 -216.42801 27.858002 -54.657 -235.328 -13.342
21.871 21.870 -16.957 -216.228 27.758 -54.657 -235.328 -13.342
21.891 21.890 -16.857002 -216.028 27.658 -54.657 -235.328 -13.342
21.912 21.910 -16.857002 -215.92801 27.458 -54.657 -235.328 -13.342
21.931 21.930 -16.857002 -215.828 27.358002 -54.657 -235.328 -13.342
21.950 21.950 -16.857002 -215.728 27.258 -54.657 -235.328 -13.342
21.970 21.970 -16.857002 -215.628 27.158 -54.657 -235.328 -13.342
21.990 21.990 -16.757 -215.528 27.058002 -54.657 -235.328 -13.342
22.011 22.010 -16.757 -215.42801 26.958 -54.657 -235.328 -13.342
22.031 22.030 -16.757 -215.42801 27.058002 -54.657 -235.328 -13.342
22.051 22.050 -16.757 -215.328 27.058002 -54.657 -235.328 -13.342
22.071 22.070 -16.757 -215.328 27.058002 -54.657 -235.328 -13.342
22.091 22.090 -16.757 -215.228 26.958 -54.657 -235.328 -13.342
22.111 22.110 -16.657001 -215.228 26.858002 -54.657 -235.328 -13.342
22.131 22.130 -16.657001 -215.128 26.858002 -54.657 -235.328 -13.342
22.151 22.150 -16.657001 -215.128 26.758 -54.657 -235.328 -13.342
22.171 22.170 -16.657001 -215.128 26.758 -54.657 -235.328 -13.342
22.191 22.190 -16.657001 -215.128 26.758 -54.657 -235.328 -13.342
22.215 22.210 -16.657001 -215.028 26.758 -54.657 -235.328 -13.342
22.231 22.230 -16.657001 -215.028 26.758 -54.657 -235.328 -13.342
22.251 22.250 -16.657001 -215.028 26.758 -54.657 -235.328 -13.342
22.271 22.270 -16.657001 -214.92801 26.758 -54.657 -235.328 -13.342
22.292 22.290 -16.657001 -214.92801 26.758 -54.657 -235.328 -13.342
22.311 22.310 -16.657001 -214.92801 26.758 -54.657 -235.328 -13.342
22.331 22.330 -16.557003 -214.92801 26.858002 -54.657 -235.328 -13.342
22.351 22.350 -16.657001 -214.92801 26.758 -54.657 -235.328 -13.342
22.371 22.370 -16.557003 -214.828 26.758 -54.657 -235.328 -13.342
22.391 22.390 -16.657001 -214.828 26.758 -54.657 -235.328 -13.342
22.411 22.410 -16.657001 -214.828 26.758 -54.657 -235.328 -13.342
22.431 22.430 -16.557003 -214.828 26.758 -54.657 -235.328 -13.342
22.451 22.450 -16.657001 -214.828 26.758 -54.657 -235.328 -13.342
22.471 22.470 -16.657001 -214.828 26.758 -54.657 -235.328 -13.342
22.491 22.490 -16.657001 -214.828 26.758 -54.657 -235.328 -13.342
22.512 22.510 -16.657001 -214.828 26.758 -54.657 -235.328 -13.342
22.531 22.530 -16.657001 -214.828 26.758 -54.657 -235.328 -13.342
22.551 22.550 -16.657001 -214.828 26.858002 -54.657 -235.328 -13.342
22.571 22.570 -16.657001 -214.828 26.858002 -54.657 -235.328 -13.342
22.591 22.590 -16.757 -214.728 26.858002 -54.657 -235.328 -13.342
22.611 22.610 -16.757 -214.728 26.858002 -54.657 -235.328 -13.342
22.631 22.630 -16.757 -214.728 26.858002 -54.657 -235.328 -13.342
22.651 22.650 -16.757 -214.728 26.858002 -54.657 -235.328 -13.342
22.671 22.670 -16.757 -214.728 26.758 -54.657 -235.328 -13.342
22.691 22.690 -16.757 -214.628 26.758 -54.657 -235.328 -13.342
22.712 22.710 -16.757 -214.628 26.758 -54.657 -235.328 -13.342
22.731 22.730 -16.757 -214.628 26.758 -54.657 -235.328 -13.342
22.750 22.750 -16.757 -214.528 26.858002 -54.657 -235.328 -13.342
22.770 22.770 -16.757 -214.528 26.858002 -54.657 -235.328 -13.342
22.792 22.790 -16.757 -214.528 26.958 -54.657 -235.328 -13.342
22.810 22.810 -16.757 -214.528 26.858002 -54.657 -235.328 -13.342
22.830 22.830 -16.757 -214.528 26.858002 -54.657 -235.328 -13.342
22.852 22.850 -16.757 -214.42801 26.858002 -54.657 -235.328 -13.342
22.871 22.870 -16.757 -214.42801 26.758 -54.657 -235.328 -13.342
22.893 22.892 -16.757 -214.42801 26.658 -54.657 -235.328 -13.342
22.911 22.910 -16.757 -214.328 26.658 -54.657 -235.328 -13.342
22.931 22.930 -16.757 -214.328 26.658 -54.657 -235.328 -13.342
22.950 22.950 -16.757 -214.228 26.558002 -54.657 -235.328 -13.342
22.970 22.970 -16.757 -214.228 26.558002 -54.657 -235.328 -13.342
22.990 22.990 -16.757 -214.228 26.458 -54.657 -235.328 -13.342
23.011 23.010 -16.757 -214.128 26.458 -54.657 -235.328 -13.342
23.031 23.030 -16.757 -214.128 26.358002 -54.657 -235.328 -13.342
23.051 23.050 -16.657001 -214.128 26.358002 -54.657 -235.328 -13.342
23.071 23.070 -16.657001 -214.028 26.258 -54.657 -235.328 -13.342
23.093 23.090 -16.757 -214.028 26.258 -54.657 -235.328 -13.342
23.111 23.110 -16.757 -214.028 26.158 -54.657 -235.328 -13.342
23.131 23.130 -16.757 -214.028 26.258 -54.657 -235.328 -13.342
23.151 23.150 -16.757 -214.028 26.258 -54.657 -235.328 -13.342
23.171 23.170 -16.757 -214.028 26.158 -54.657 -235.328 -13.342
23.191 23.190 -16.757 -213.92801 26.058002 -54.657 -235.328 -13.342
23.211 23.210 -16.757 -213.92801 26.058002 -54.657 -235.328 -13.342
23.231 23.230 -16.857002 -213.92801 26.058002 -54.657 -235.328 -13.342
23.251 23.250 -16.857002 -213.92801 26.058002 -54.657 -235.328 -13.342
23.271 23.270 -16.757 -213.92801 26.058002 -54.657 -235.328 -13.342
23.291 23.290 -16.757 -213.828 25.958 -54.657 -235.328 -13.342
23.311 23.310 -16.857002 -213.828 25.858002 -54.657 -235.328 -13.342
23.331 23.330 -16.857002 -213.828 25.858002 -54.657 -235.328 -13.342
23.351 23.350 -16.857002 -213.828 25.758 -54.657 -235.328 -13.342
23.371 23.370 -16.957 -213.828 25.758 -54.657 -235.328 -13.342
23.392 23.390 -16.857002 -213.728 25.758 -54.657 -235.328 -13.342
23.411 23.410 -16.957 -213.728 25.658 -54.657 -235.328 -13.342
23.431 23.430 -16.957 -213.728 25.758 -54.657 -235.328 -13.342
23.451 23.450 -16.857002 -213.728 25.658 -54.657 -235.328 -13.342
23.471 23.470 -16.857002 -213.628 25.758 -54.657 -235.328 -13.342
23.491 23.490 -16.857002 -213.628 25.758 -54.657 -235.328 -13.342
23.511 23.510 -16.857002 -213.628 25.658 -54.657 -235.328 -13.342
23.531 23.530 -16.957 -213.628 25.658 -54.657 -235.328 -13.342
23.551 23.550 -16.957 -213.628 25.658 -54.657 -235.328 -13.342
23.571 23.570 -16.957 -213.628 25.758 -54.657 -235.328 -13.342
23.591 23.590 -16.957 -213.628 25.758 -54.657 -235.328 -13.342
23.611 23.610 -16.957 -213.528 25.758 -54.657 -235.328 -13.342
23.631 23.630 -16.957 -213.528 25.758 -54.657 -235.328 -13.342
23.651 23.650 -16.957 -213.528 25.658 -54.657 -235.328 -13.342
23.671 23.670 -16.957 -213.42801 25.658 -54.657 -235.328 -13.342
23.691 23.690 -16.957 -213.42801 25.658 -54.657 -235.328 -13.342
23.711 23.710 -16.957 -213.42801 25.758 -54.657 -235.328 -13.342
23.731 23.730 -16.957 -213.42801 25.758 -54.657 -235.328 -13.342
23.751 23.750 -16.957 -213.328 25.658 -54.657 -235.328 -13.342
23.774 23.770 -16.957 -213.328 25.758 -54.657 -235.328 -13.342
23.791 23.790 -16.957 -213.328 25.858002 -54.657 -235.328 -13.342
23.812 23.810 -16.957 -213.328 25.858002 -54.657 -235.328 -13.342
23.831 23.830 -16.957 -213.228 25.858002 -54.657 -235.328 -13.342
23.851 23.850 -17.057003 -213.228 25.858002 -54.657 -235.328 -13.342
23.871 23.870 -17.057003 -213.328 25.958 -54.657 -235.328 -13.342
23.891 23.890 -17.057003 -213.328 25.958 -54.657 -235.328 -13.342
23.911 23.910 -17.057003 -213.328 25.958 -54.657 -235.328 -13.342
23.931 23.930 -17.057003 -213.228 25.958 -54.657 -235.328 -13.342
23.951 23.950 -17.057003 -213.228 25.958 -54.657 -235.328 -13.342
23.971 23.970 -17.057003 -213.228 25.958 -54.657 -235.328 -13.342
23.991 23.990 -17.057003 -213.228 25.958 -54.657 -235.328 -13.342
24.011 24.010 -17.057003 -213.228 26.058002 -54.657 -235.328 -13.342
24.031 24.030 -17.157001 -213.228 25.958 -54.657 -235.328 -13.342
24.051 24.050 -17.157001 -213.228 25.958 -54.657 -235.328 -13.342
24.074 24.070 -17.157001 -213.228 25.958 -54.657 -235.328 -13.342
24.091 24.090 -17.157001 -213.228 25.858002 -54.657 -235.328 -13.342
24.111 24.110 -17.157001 -213.228 25.858002 -54.657 -235.328 -13.342
24.131 24.130 -17.157001 -213.228 25.958 -54.657 -235.328 -13.342
24.151 24.150 -17.257 -213.228 25.958 -54.657 -235.328 -13.342
24.171 24.170 -17.157001 -213.228 25.858002 -54.657 -235.328 -13.342
24.191 24.190 -17.257 -213.228 25.858002 -54.657 -235.328 -13.342
24.211 24.210 -17.257 -213.228 25.858002 -54.657 -235.328 -13.342
24.231 24.230 -17.257 -213.228 25.958 -54.657 -235.328 -13.342
24.251 24.250 -17.257 -213.228 25.958 -54.657 -235.328 -13.342
24.271 24.270 -17.257 -213.228 25.958 -54.657 -235.328 -13.342
24.291 24.290 -17.257 -213.228 25.958 -54.657 -235.328 -13.342
24.311 24.310 -17.157001 -213.128 25.958 -54.657 -235.328 -13.342
24.331 24.330 -17.157001 -213.128 25.858002 -54.657 -235.328 -13.342
24.351 24.350 -17.157001 -213.228 25.858002 -54.657 -235.328 -13.342
24.372 24.370 -17.157001 -213.128 25.858002 -54.657 -235.328 -13.342
24.391 24.390 -17.257 -213.128 25.858002 -54.657 -235.328 -13.342
24.411 24.410 -17.157001 -213.128 25.958 -54.657 -235.328 -13.342
24.431 24.430 -17.157001 -213.128 25.958 -54.657 -235.328 -13.342
24.451 24.450 -17.157001 -213.128 25.858002 -54.657 -235.328 -13.342
24.471 24.470 -17.057003 -213.028 25.758 -54.657 -235.328 -13.342
24.491 24.490 -17.057003 -213.028 25.758 -54.657 -235.328 -13.342
24.511 24.510 -17.057003 -213.028 25.858002 -54.657 -235.328 -13.342
24.531 24.530 -17.057003 -213.028 25.858002 -54.657 -235.328 -13.342
24.551 24.550 -17.157001 -213.028 25.858002 -54.657 -235.328 -13.342
24.571 24.570 -17.157001 -213.028 25.858002 -54.657 -235.328 -13.342
24.591 24.590 -17.157001 -213.028 25.858002 -54.657 -235.328 -13.342
24.611 24.610 -17.257 -213.028 25.758 -54.657 -235.328 -13.342
24.631 24.630 -17.157001 -213.028 25.858002 -54.657 -235.328 -13.342
24.651 24.650 -17.257 -213.028 25.858002 -54.657 -235.328 -13.342
24.671 24.670 -17.257 -213.028 25.858002 -54.657 -235.328 -13.342
24.691 24.690 -17.257 -213.028 25.858002 -54.657 -235.328 -13.342
24.711 24.710 -17.257 -213.028 25.958 -54.657 -235.328 -13.342
24.731 24.730 -17.257 -213.028 25.858002 -54.657 -235.328 -13.342
24.752 24.750 -17.257 -213.028 25.858002 -54.657 -235.328 -13.342
24.771 24.770 -17.357002 -213.028 25.858002 -54.657 -235.328 -13.342
24.791 24.790 -17.357002 -213.028 25.858002 -54.657 -235.328 -13.342
24.811 24.810 -17.357002 -213.028 25.858002 -54.657 -235.328 -13.342
24.831 24.830 -17.457 -213.028 25.858002 -54.657 -235.328 -13.342
24.851 24.850 -17.457 -213.028 25.858002 -54.657 -235.328 -13.342
24.871 24.870 -17.457 -213.028 25.858002 -54.657 -235.328 -13.342
24.891 24.890 -17.557003 -213.028 25.958 -54.657 -235.328 -13.342
24.911 24.910 -17.557003 -213.028 25.958 -54.657 -235.328 -13.342
24.931 24.930 -17.657001 -213.028 25.958 -54.657 -235.328 -13.342
24.954 24.950 -17.657001 -213.028 25.958 -54.657 -235.328 -13.342
24.971 24.970 -17.657001 -213.028 25.958 -54.657 -235.328 -13.342
24.991 24.990 -17.657001 -212.92801 25.958 -54.657 -235.328 -13.342
25.011 25.010 -17.657001 -212.92801 25.958 -54.657 -235.328 -13.342
25.031 25.030 -17.757 -212.92801 25.958 -54.657 -235.328 -13.342
25.051 25.050 -17.857002 -213.028 25.958 -54.657 -235.328 -13.342
25.071 25.070 -17.857002 -213.028 26.058002 -54.657 -235.328 -13.342
25.092 25.090 -17.857002 -213.028 26.058002 -54.657 -235.328 -13.342
25.111 25.110 -17.957 -213.028 26.158 -54.657 -235.328 -13.342
25.131 25.130 -17.957 -212.92801 26.158 -54.657 -235.328 -13.342
25.151 25.150 -17.957 -212.92801 26.258 -54.657 -235.328 -13.342
25.171 25.170 -17.957 -212.92801 26.258 -54.657 -235.328 -13.342
25.191 25.190 -17.957 -212.92801 26.358002 -54.657 -235.328 -13.342
25.211 25.210 -17.957 -212.92801 26.358002 -54.657 -235.328 -13.342
25.232 25.230 -17.957 -212.92801 26.458 -54.657 -235.328 -13.342
25.252 25.250 -17.857002 -213.028 26.458 -54.657 -235.328 -13.342
25.271 25.270 -17.857002 -213.028 26.558002 -54.657 -235.328 -13.342
25.291 25.290 -17.857002 -213.028 26.658 -54.657 -235.328 -13.342
25.311 25.310 -17.957 -213.128 26.758 -54.657 -235.328 -13.342
25.331 25.330 -17.957 -213.228 26.858002 -54.657 -235.328 -13.342
25.351 25.350 -17.957 -213.328 27.058002 -54.657 -235.328 -13.342
25.371 25.370 -17.957 -213.528 27.258 -54.657 -235.328 -13.342
25.391 25.390 -18.057003 -213.828 27.458 -54.657 -235.328 -13.342
25.411 25.410 -17.895 -214.69301 27.978 -54.657 -235.328 -13.342
25.431 25.430 -17.407001 -218.757 30.400002 -54.657 -235.328 -13.342
25.451 25.450 -17.017002 -221.70601 31.267002 -54.657 -235.328 -13.342
25.471 25.470 -17.187 -224.58101 31.962002 -54.657 -235.328 -13.342
25.491 25.490 -16.299 -225.817 33.576 -54.657 -235.328 -13.342
25.511 25.510 -16.694 -227.564 35.215 -54.657 -235.328 -13.342
25.531 25.530 -16.395 -228.937 35.024002 -54.657 -235.328 -13.342
25.552 25.550 -16.164001 -231.61 36.082 -54.657 -235.328 -13.342
25.571 25.570 -15.701 -235.89801 37.736 -54.657 -235.328 -13.342
25.591 25.590 -15.906002 -238.19 37.394 -54.657 -235.328 -13.342
25.611 25.610 -15.596001 -241.203 36.107002 -54.657 -235.328 -13.342
25.632 25.630 -15.076 -242.809 36.788002 -54.657 -235.328 -13.342
25.651 25.650 -15.577 -245.92801 35.685 -54.657 -235.328 -13.342
25.671 25.670 -15.564003 -248.23401 34.84 -54.657 -235.328 -13.342
25.691 25.690 -14.802002 -252.028 35.486 -54.657 -235.328 -13.342
25.711 25.710 -13.425003 -253.021 34.624 -54.657 -235.328 -13.342
25.731 25.730 -13.974003 -255.31601 34.949 -54.657 -235.328 -13.342
25.751 25.750 -15.553001 -258.838 32.223 -54.657 -235.328 -13.342
25.771 25.770 -14.208 -259.646 32.845 -54.657 -235.328 -13.342
25.791 25.790 -15.776001 -260.357 30.398003 -54.657 -235.328 -13.342
25.811 25.810 -15.530003 -260.63602 31.319 -54.657 -235.328 -13.342
25.832 25.830 -15.197002 -260.977 29.482002 -54.657 -235.328 -13.342
25.852 25.850 -16.955002 -260.809 33.151 -54.657 -235.328 -13.342
25.871 25.870 -16.907001 -261.463 31.319 -54.657 -235.328 -13.342
25.891 25.890 -17.736 -262.147 31.311 -54.657 -235.328 -13.342
25.911 25.910 -16.892002 -261.187 31.328 -54.657 -235.328 -13.342
25.931 25.930 -18.015003 -261.887 31.934002 -54.657 -235.328 -13.342
25.951 25.950 -17.991001 -261.883 31.334 -54.657 -235.328 -13.342
25.971 25.970 -17.449001 -260.45502 32.255 -54.657 -235.328 -13.342
25.991 25.990 -18.262001 -260.638 32.557 -54.657 -235.328 -13.342
26.011 26.010 -18.27 -260.655 33.16 -54.657 -235.328 -13.342
26.031 26.030 -18.5 -260.956 31.972 -54.657 -235.328 -13.342
26.051 26.050 -18.509003 -261.447 32.274002 -54.657 -235.328 -13.342
26.072 26.070 -18.508003 -260.68 33.16 -54.657 -235.328 -13.342
26.091 26.090 -17.942001 -260.81 32.297 -54.657 -235.328 -13.342
26.111 26.110 -18.7 -261.114 32.3 -54.657 -235.328 -13.342
26.134 26.130 -17.386002 -260.91 31.484001 -54.657 -235.328 -13.342
26.151 26.150 -17.575 -260.446 31.254002 -54.657 -235.328 -13.342
26.171 26.170 -17.986 -260.419 30.784 -54.657 -235.328 -13.342
26.193 26.190 -17.986 -261.099 32.969 -54.657 -235.328 -13.342
26.212 26.210 -17.482002 -260.22 31.872002 -54.657 -235.328 -13.342
26.231 26.230 -17.272003 -260.318 32.221 -54.657 -235.328 -13.342
26.251 26.250 -17.401001 -260.396 32.41 -54.657 -235.328 -13.342
26.271 26.270 -17.257 -260.728 32.058002 -54.657 -235.328 -13.342
26.291 26.290 -17.357002 -260.928 31.958 -54.657 -235.328 -13.342
26.311 26.310 -17.457 -261.228 31.858002 -54.657 -235.328 -13.342
26.331 26.330 -17.657001 -261.328 31.758 -54.657 -235.328 -13.342
26.351 26.350 -17.757 -261.328 31.758 -54.657 -235.328 -13.342
26.371 26.370 -17.857002 -261.328 31.758 -54.657 -235.328 -13.342
26.390 26.390 -17.957 -261.328 31.758 -54.657 -235.328 -13.342
26.411 26.410 -18.057003 -261.328 31.758 -54.657 -235.328 -13.342
26.431 26.430 -18.157001 -261.228 31.858002 -54.657 -235.328 -13.342
26.450 26.450 -18.257 -261.228 31.858002 -54.657 -235.328 -13.342
26.470 26.470 -18.257 -261.128 31.858002 -54.657 -235.328 -13.342
26.491 26.490 -18.357002 -261.028 31.858002 -54.657 -235.328 -13.342
26.511 26.510 -18.357002 -261.028 31.958 -54.657 -235.328 -13.342
26.532 26.530 -18.357002 -260.928 31.958 -54.657 -235.328 -13.342
26.551 26.550 -18.357002 -260.828 32.058002 -54.657 -235.328 -13.342
26.571 26.570 -18.457 -260.828 32.058002 -54.657 -235.328 -13.342
26.591 26.590 -18.457 -260.728 32.058002 -54.657 -235.328 -13.342
26.611 26.610 -18.457 -260.728 32.058002 -54.657 -235.328 -13.342
26.631 26.630 -18.457 -260.628 32.058002 -54.657 -235.328 -13.342
26.651 26.650 -18.357002 -260.628 32.058002 -54.657 -235.328 -13.342
26.671 26.670 -18.357002 -260.528 32.058002 -54.657 -235.328 -13.342
26.691 26.690 -18.357002 -260.528 32.058002 -54.657 -235.328 -13.342
26.711 26.710 -18.357002 -260.428 32.058002 -54.657 -235.328 -13.342
26.731 26.730 -18.357002 -260.428 32.158 -54.657 -235.328 -13.342
26.751 26.750 -18.457 -260.328 32.158 -54.657 -235.328 -13.342
26.771 26.770 -18.457 -260.328 32.258 -54.657 -235.328 -13.342
26.791 26.790 -18.457 -260.228 32.258 -54.657 -235.328 -13.342
26.811 26.810 -18.457 -260.228 32.258 -54.657 -235.328 -13.342
26.831 26.830 -18.557003 -260.228 32.358 -54.657 -235.328 -13.342
26.851 26.850 -18.557003 -260.228 32.258 -54.657 -235.328 -13.342
26.871 26.870 -18.557003 -260.128 32.358 -54.657 -235.328 -13.342
26.891 26.890 -18.557003 -260.128 32.358 -54.657 -235.328 -13.342
26.911 26.910 -18.557003 -260.028 32.458 -54.657 -235.328 -13.342
26.931 26.930 -18.557003 -260.028 32.358 -54.657 -235.328 -13.342
26.951 26.950 -18.657001 -260.028 32.458 -54.657 -235.328 -13.342
26.971 26.970 -18.657001 -259.928 32.458 -54.657 -235.328 -13.342
26.991 26.990 -18.657001 -259.928 32.558002 -54.657 -235.328 -13.342
27.011 27.010 -18.657001 -259.928 32.658 -54.657 -235.328 -13.342
27.031 27.030 -18.657001 -259.828 32.658 -54.657 -235.328 -13.342
27.050 27.050 -18.657001 -259.828 32.758 -54.657 -235.328 -13.342
27.071 27.070 -18.657001 -259.828 32.858 -54.657 -235.328 -13.342
27.090 27.090 -18.657001 -259.828 32.858 -54.657 -235.328 -13.342
27.126 27.110 -18.657001 -259.828 32.858 -54.657 -235.328 -13.342
27.131 27.130 -18.657001 -259.828 32.858 -54.657 -235.328 -13.342
27.150 27.150 -18.657001 -259.828 32.958 -54.657 -235.328 -13.342
27.170 27.170 -18.657001 -259.728 32.958 -54.657 -235.328 -13.342
27.190 27.190 -18.657001 -259.728 32.958 -54.657 -235.328 -13.342
27.210 27.210 -18.657001 -259.728 33.058002 -54.657 -235.328 -13.342
27.230 27.230 -18.657001 -259.728 33.058002 -54.657 -235.328 -13.342
27.251 27.250 -18.657001 -259.728 33.058002 -54.657 -235.328 -13.342
27.271 27.270 -18.657001 -259.728 33.058002 -54.657 -235.328 -13.342
27.291 27.290 -18.657001 -259.728 33.158 -54.657 -235.328 -13.342
27.311 27.310 -18.757 -259.728 33.158 -54.657 -235.328 -13.342
27.331 27.330 -18.757 -259.728 33.158 -54.657 -235.328 -13.342
27.351 27.350 -18.657001 -259.728 33.258 -54.657 -235.328 -13.342
27.371 27.370 -18.657001 -259.628 33.358 -54.657 -235.328 -13.342
27.390 27.390 -18.657001 -259.628 33.358 -54.657 -235.328 -13.342
27.411 27.410 -18.757 -259.628 33.358 -54.657 -235.328 -13.342
27.431 27.430 -18.657001 -259.628 33.358 -54.657 -235.328 -13.342
27.451 27.450 -18.757 -259.628 33.458 -54.657 -235.328 -13.342
27.472 27.470 -18.757 -259.628 33.358 -54.657 -235.328 -13.342
27.491 27.490 -18.757 -259.628 33.358 -54.657 -235.328 -13.342
27.511 27.510 -18.757 -259.528 33.358 -54.657 -235.328 -13.342
27.531 27.530 -18.757 -259.528 33.458 -54.657 -235.328 -13.342
27.551 27.550 -18.757 -259.528 33.458 -54.657 -235.328 -13.342
27.571 27.570 -18.757 -259.528 33.558002 -54.657 -235.328 -13.342
27.591 27.590 -18.757 -259.528 33.558002 -54.657 -235.328 -13.342
27.611 27.610 -18.657001 -259.428 33.558002 -54.657 -235.328 -13.342
27.631 27.630 -18.657001 -259.428 33.458 -54.657 -235.328 -13.342
27.651 27.650 -18.657001 -259.428 33.458 -54.657 -235.328 -13.342
27.671 27.670 -18.657001 -259.428 33.458 -54.657 -235.328 -13.342
27.692 27.690 -18.657001 -259.328 33.458 -54.657 -235.328 -13.342
27.712 27.710 -18.657001 -259.328 33.458 -54.657 -235.328 -13.342
27.731 27.730 -18.657001 -259.328 33.358 -54.657 -235.328 -13.342
27.751 27.750 -18.757 -259.328 33.358 -54.657 -235.328 -13.342
27.771 27.770 -18.757 -259.228 33.358 -54.657 -235.328 -13.342
27.791 27.790 -18.757 -259.228 33.458 -54.657 -235.328 -13.342
27.811 27.810 -18.757 -259.228 33.358 -54.657 -235.328 -13.342
27.831 27.830 -18.757 -259.228 33.358 -54.657 -235.328 -13.342
27.851 27.850 -18.757 -259.228 33.358 -54.657 -235.328 -13.342
27.870 27.870 -18.757 -259.128 33.258 -54.657 -235.328 -13.342
27.891 27.890 -18.757 -259.128 33.258 -54.657 -235.328 -13.342
27.910 27.910 -18.657001 -259.028 33.258 -54.657 -235.328 -13.342
27.930 27.930 -18.657001 -259.028 33.258 -54.657 -235.328 -13.342
27.950 27.950 -18.757 -258.928 33.158 -54.657 -235.328 -13.342
27.971 27.970 -18.757 -258.928 33.158 -54.657 -235.328 -13.342
27.994 27.990 -18.757 -258.828 33.158 -54.657 -235.328 -13.342
28.011 28.010 -18.757 -258.828 33.158 -54.657 -235.328 -13.342
28.031 28.030 -18.657001 -258.828 33.158 -54.657 -235.328 -13.342
28.051 28.050 -18.657001 -258.728 33.158 -54.657 -235.328 -13.342
28.071 28.070 -18.657001 -258.728 33.258 -54.657 -235.328 -13.342
28.091 28.090 -18.657001 -258.628 33.158 -54.657 -235.328 -13.342
28.111 28.110 -18.657001 -258.628 33.158 -54.657 -235.328 -13.342
28.131 28.130 -18.657001 -258.628 33.058002 -54.657 -235.328 -13.342
28.152 28.150 -18.657001 -258.528 33.058002 -54.657 -235.328 -13.342
28.171 28.170 -18.657001 -258.528 32.958 -54.657 -235.328 -13.342
28.191 28.190 -18.657001 -258.528 33.058002 -54.657 -235.328 -13.342
28.211 28.210 -18.657001 -258.528 33.058002 -54.657 -235.328 -13.342
28.231 28.230 -18.657001 -258.528 33.058002 -54.657 -235.328 -13.342
28.251 28.250 -18.657001 -258.528 33.058002 -54.657 -235.328 -13.342
28.273 28.270 -18.657001 -258.428 33.058002 -54.657 -235.328 -13.342
28.293 28.290 -18.757 -258.428 33.058002 -54.657 -235.328 -13.342
28.311 28.310 -18.757 -258.428 33.058002 -54.657 -235.328 -13.342
28.330 28.330 -18.757 -258.428 33.058002 -54.657 -235.328 -13.342
28.350 28.350 -18.757 -258.428 33.158 -54.657 -235.328 -13.342
28.370 28.370 -18.757 -258.428 33.158 -54.657 -235.328 -13.342
28.391 28.390 -18.757 -258.328 33.158 -54.657 -235.328 -13.342
28.411 28.410 -18.757 -258.328 33.158 -54.657 -235.328 -13.342
28.431 28.430 -18.757 -258.328 33.158 -54.657 -235.328 -13.342
28.451 28.450 -18.757 -258.328 33.158 -54.657 -235.328 -13.342
28.471 28.470 -18.757 -258.328 33.258 -54.657 -235.328 -13.342
28.491 28.490 -18.757 -258.228 33.258 -54.657 -235.328 -13.342
28.511 28.510 -18.757 -258.228 33.358 -54.657 -235.328 -13.342
28.531 28.530 -18.757 -258.228 33.358 -54.657 -235.328 -13.342
28.551 28.550 -18.657001 -258.228 33.358 -54.657 -235.328 -13.342
28.571 28.570 -18.657001 -258.228 33.458 -54.657 -235.328 -13.342
28.592 28.590 -18.657001 -258.228 33.458 -54.657 -235.328 -13.342
28.611 28.610 -18.657001 -258.228 33.558002 -54.657 -235.328 -13.342
28.631 28.630 -18.657001 -258.228 33.558002 -54.657 -235.328 -13.342
28.651 28.650 -18.757 -258.128 33.658 -54.657 -235.328 -13.342
28.671 28.670 -18.757 -258.128 33.658 -54.657 -235.328 -13.342
28.691 28.690 -18.757 -258.128 33.558002 -54.657 -235.328 -13.342
28.710 28.710 -18.757 -258.128 33.558002 -54.657 -235.328 -13.342
28.730 28.730 -18.757 -258.128 33.658 -54.657 -235.328 -13.342
28.750 28.750 -18.757 -258.128 33.758 -54.657 -235.328 -13.342
28.770 28.770 -18.857002 -258.128 33.758 -54.657 -235.328 -13.342
28.791 28.790 -18.757 -258.128 33.758 -54.657 -235.328 -13.342
28.811 28.810 -18.757 -258.128 33.758 -54.657 -235.328 -13.342
28.831 28.830 -18.757 -258.128 33.758 -54.657 -235.328 -13.342
28.851 28.850 -18.757 -258.128 33.858 -54.657 -235.328 -13.342
28.875 28.871 -18.757 -258.128 33.758 -54.657 -235.328 -13.342
28.895 28.890 -18.757 -258.128 33.858 -54.657 -235.328 -13.342
28.911 28.910 -18.757 -258.028 33.958 -54.657 -235.328 -13.342
28.931 28.930 -18.757 -258.128 33.958 -54.657 -235.328 -13.342
28.951 28.950 -18.757 -258.028 33.958 -54.657 -235.328 -13.342
28.971 28.970 -18.857002 -258.028 34.058002 -54.657 -235.328 -13.342
28.991 28.990 -18.857002 -258.028 34.058002 -54.657 -235.328 -13.342
29.011 29.010 -18.757 -258.028 34.158 -54.657 -235.328 -13.342
29.031 29.030 -18.757 -258.028 34.258 -54.657 -235.328 -13.342
29.051 29.050 -18.757 -258.028 34.258 -54.657 -235.328 -13.342
29.071 29.070 -18.857002 -258.028 34.358 -54.657 -235.328 -13.342
29.091 29.090 -18.857002 -258.028 34.358 -54.657 -235.328 -13.342
29.111 29.110 -18.857002 -258.028 34.358 -54.657 -235.328 -13.342
29.131 29.130 -18.957 -258.028 34.458 -54.657 -235.328 -13.342
29.151 29.150 -18.957 -258.028 34.358 -54.657 -235.328 -13.342
29.172 29.170 -18.957 -258.028 34.358 -54.657 -235.328 -13.342
29.191 29.190 -18.957 -258.028 34.358 -54.657 -235.328 -13.342
29.211 29.210 -18.957 -258.028 34.358 -54.657 -235.328 -13.342
29.231 29.230 -18.957 -257.928 34.358 -54.657 -235.328 -13.342
29.251 29.250 -18.957 -257.928 34.458 -54.657 -235.328 -13.342
29.271 29.270 -18.957 -257.928 34.558002 -54.657 -235.328 -13.342
29.291 29.290 -18.957 -257.828 34.558002 -54.657 -235.328 -13.342
29.311 29.310 -18.957 -257.928 34.558002 -54.657 -235.328 -13.342
29.331 29.330 -19.057003 -257.828 34.558002 -54.657 -235.328 -13.342
29.351 29.350 -19.057003 -257.828 34.658 -54.657 -235.328 -13.342
29.371 29.370 -19.057003 -257.828 34.658 -54.657 -235.328 -13.342
29.391 29.390 -19.057003 -257.728 34.758 -54.657 -235.328 -13.342
29.411 29.410 -19.057003 -257.728 34.758 -54.657 -235.328 -13.342
29.431 29.430 -19.057003 -257.728 34.758 -54.657 -235.328 -13.342
29.451 29.450 -19.157001 -257.728 34.858 -54.657 -235.328 -13.342
29.471 29.470 -19.157001 -257.628 34.958 -54.657 -235.328 -13.342
29.491 29.490 -19.157001 -257.628 34.958 -54.657 -235.328 -13.342
29.511 29.510 -19.157001 -257.628 34.858 -54.657 -235.328 -13.342
29.531 29.530 -19.157001 -257.628 34.858 -54.657 -235.328 -13.342
29.551 29.550 -19.257 -257.628 34.858 -54.657 -235.328 -13.342
29.571 29.570 -19.257 -257.628 34.958 -54.657 -235.328 -13.342
29.591 29.590 -19.257 -257.528 34.958 -54.657 -235.328 -13.342
29.611 29.610 -19.357002 -257.528 34.958 -54.657 -235.328 -13.342
29.631 29.630 -19.357002 -257.528 34.958 -54.657 -235.328 -13.342
29.651 29.650 -19.457 -257.528 35.058002 -54.657 -235.328 -13.342
29.671 29.670 -19.457 -257.428 35.058002 -54.657 -235.328 -13.342
29.691 29.690 -19.457 -257.328 35.058002 -54.657 -235.328 -13.342
29.711 29.710 -19.457 -257.328 35.158 -54.657 -235.328 -13.342
29.731 29.730 -19.557003 -257.228 35.158 -54.657 -235.328 -13.342
29.751 29.750 -19.557003 -257.128 35.358 -54.657 -235.328 -13.342
29.772 29.770 -19.657001 -257.028 35.558002 -54.657 -235.328 -13.342
29.791 29.790 -19.757 -256.828 35.658 -54.657 -235.328 -13.342
29.811 29.810 -19.757 -256.528 35.758 -54.657 -235.328 -13.342
29.831 29.830 -19.852001 -254.98601 36.388 -54.657 -235.328 -13.342
29.855 29.850 -20.063 -251.245 37.764 -54.657 -235.328 -13.342
29.871 29.870 -20.478 -247.45 37.851 -54.657 -235.328 -13.342
29.891 29.890 -19.778 -243.045 38.508 -54.657 -235.328 -13.342
29.911 29.910 -19.485 -239.179 38.31 -54.657 -235.328 -13.342
29.931 29.930 -19.41 -235.587 38.193 -54.657 -235.328 -13.342
29.951 29.950 -19.611 -231.396 38.829002 -54.657 -235.328 -13.342
29.970 29.970 -19.789001 -227.244 38.339 -54.657 -235.328 -13.342
29.990 29.990 -21.019001 -223.47 37.199 -54.657 -235.328 -13.342
30.011 30.010 -22.428001 -215.74701 33.011 -54.657 -235.328 -13.342
30.031 30.030 -23.720001 -212.162 31.440002 -54.657 -235.328 -13.342
30.051 30.050 -23.697002 -208.84201 30.779 -54.657 -235.328 -13.342
30.071 30.070 -25.245 -206.203 27.658 -54.657 -235.328 -13.342
30.091 30.090 -24.630001 -203.794 25.457 -54.657 -235.328 -13.342
30.111 30.110 -25.926 -201.90201 22.936 -54.657 -235.328 -13.342
30.132 30.130 -27.257002 -200.904 20.711002 -54.657 -235.328 -13.342
30.154 30.150 -27.223001 -199.274 19.741001 -54.657 -235.328 -13.342
30.171 30.170 -28.11 -199.223 20.949001 -54.657 -235.328 -13.342
30.191 30.190 -27.414001 -198.051 16.571 -54.657 -235.328 -13.342
30.211 30.210 -29.115002 -196.858 17.470001 -54.657 -235.328 -13.342
30.231 30.230 -28.484001 -196.403 14.962001 -54.657 -235.328 -13.342
30.251 30.250 -28.776001 -196.54001 15.259999 -54.657 -235.328 -13.342
30.271 30.270 -28.495 -196.32901 14.933 -54.657 -235.328 -13.342
30.291 30.290 -27.909002 -195.28601 14.303 -54.657 -235.328 -13.342
30.311 30.310 -28.157001 -195.90201 13.0460005 -54.657 -235.328 -13.342
30.331 30.330 -29.024002 -196.572 13.662999 -54.657 -235.328 -13.342
30.351 30.350 -28.691002 -196.339 12.11 -54.657 -235.328 -13.342
30.371 30.370 -28.701002 -196.673 12.112 -54.657 -235.328 -13.342
30.391 30.390 -28.414001 -196.81201 11.815 -54.657 -235.328 -13.342
30.411 30.410 -29.148 -196.24 9.021001 -54.657 -235.328 -13.342
30.431 30.430 -28.268002 -196.024 7.4970007 -54.657 -235.328 -13.342
30.452 30.450 -28.832 -196.19301 7.8170004 -54.657 -235.328 -13.342
30.471 30.470 -28.246002 -195.518 7.227 -54.657 -235.328 -13.342
30.491 30.490 -28.760002 -196.776 5.4210005 -54.657 -235.328 -13.342
30.511 30.510 -29.036001 -195.807 6.0700006 -54.657 -235.328 -13.342
30.531 30.530 -28.746002 -196.907 5.221999 -54.657 -235.328 -13.342
30.551 30.550 -27.391 -196.55501 4.717 -54.657 -235.328 -13.342
30.570 30.570 -27.137001 -196.55 4.832 -54.657 -235.328 -13.342
30.591 30.590 -25.743002 -197.338 0.38399982 -54.657 -235.328 -13.342
30.611 30.610 -24.787 -197.007 1.0459995 -54.657 -235.328 -13.342
30.631 30.630 -24.53 -196.491 -0.29800034 -54.657 -235.328 -13.342
30.651 30.650 -25.095001 -197.617 -0.23499966 -54.657 -235.328 -13.342
30.671 30.670 -25.341002 -196.996 -0.77000046 -54.657 -235.328 -13.342
30.691 30.690 -25.400002 -196.56201 0.034999847 -54.657 -235.328 -13.342
30.711 30.710 -25.433 -196.952 0.2550001 -54.657 -235.328 -13.342
30.731 30.730 -24.931002 -197.188 -0.86900043 -54.657 -235.328 -13.342
30.752 30.750 -25.156002 -197.185 -0.96899986 -54.657 -235.328 -13.342
30.771 30.770 -24.968002 -196.896 -0.46000004 -54.657 -235.328 -13.342
30.791 30.790 -24.422 -196.43701 -2.3839998 -54.657 -235.328 -13.342
30.811 30.810 -24.617 -196.701 -2.9770002 -54.657 -235.328 -13.342
30.831 30.830 -25.221 -197.093 -4.9589996 -54.657 -235.328 -13.342
30.851 30.850 -24.309002 -196.561 -4.0369997 -54.657 -235.328 -13.342
30.871 30.870 -24.493002 -196.55301 -4.6260004 -54.657 -235.328 -13.342
30.904 30.897 -25.62 -196.982 -4.4280005 -54.657 -235.328 -13.342
30.931 30.930 -24.704002 -196.835 -5.748 -54.657 -235.328 -13.342
30.950 30.950 -23.863 -196.723 -5.05 -54.657 -235.328 -13.342
30.970 30.970 -24.020002 -197.05501 -6.73 -54.657 -235.328 -13.342
30.990 30.990 -23.875002 -197.061 -5.768 -54.657 -235.328 -13.342
31.011 31.010 -23.482002 -196.956 -6.029 -54.657 -235.328 -13.342
31.031 31.030 -24.026001 -196.95801 -6.0690002 -54.657 -235.328 -13.342
31.051 31.050 -23.795002 -197.59201 -7.329 -54.657 -235.328 -13.342
31.071 31.070 -23.482002 -196.95801 -7.303 -54.657 -235.328 -13.342
31.091 31.090 -23.302002 -197.292 -6.765 -54.657 -235.328 -13.342
31.111 31.110 -23.642002 -197.177 -6.824 -54.657 -235.328 -13.342
31.131 31.130 -23.588001 -197.407 -6.249 -54.657 -235.328 -13.342
31.151 31.150 -23.502 -197.319 -6.133 -54.657 -235.328 -13.342
31.171 31.170 -23.888002 -197.252 -6.353 -54.657 -235.328 -13.342
31.191 31.190 -23.831001 -197.265 -6.633 -54.657 -235.328 -13.342
31.211 31.210 -23.857002 -197.251 -6.647 -54.657 -235.328 -13.342
31.231 31.230 -23.823002 -197.331 -6.963 -54.657 -235.328 -13.342
31.251 31.250 -23.755001 -197.328 -7.191 -54.657 -235.328 -13.342
31.272 31.270 -23.757002 -197.328 -7.342 -54.657 -235.328 -13.342
31.291 31.290 -23.657001 -197.228 -7.742 -54.657 -235.328 -13.342
31.311 31.310 -23.657001 -197.228 -8.042 -54.657 -235.328 -13.342
31.331 31.330 -23.657001 -197.228 -8.342 -54.657 -235.328 -13.342
31.352 31.350 -23.657001 -197.228 -8.642 -54.657 -235.328 -13.342
31.371 31.370 -23.657001 -197.228 -8.941999 -54.657 -235.328 -13.342
31.391 31.390 -23.657001 -197.228 -9.242001 -54.657 -235.328 -13.342
31.411 31.410 -23.757002 -197.228 -9.542 -54.657 -235.328 -13.342
31.431 31.430 -23.657001 -197.228 -9.742001 -54.657 -235.328 -13.342
31.451 31.450 -23.757002 -197.228 -9.941999 -54.657 -235.328 -13.342
31.471 31.470 -23.757002 -197.228 -10.142 -54.657 -235.328 -13.342
31.491 31.490 -23.757002 -197.228 -10.342 -54.657 -235.328 -13.342
31.511 31.510 -23.757002 -197.128 -10.542 -54.657 -235.328 -13.342
31.531 31.530 -23.757002 -197.128 -10.742001 -54.657 -235.328 -13.342
31.551 31.550 -23.757002 -197.128 -10.941999 -54.657 -235.328 -13.342
31.571 31.570 -23.857002 -197.128 -11.042 -54.657 -235.328 -13.342
31.591 31.590 -23.857002 -197.128 -11.342 -54.657 -235.328 -13.342
31.632 31.610 -23.957 -197.128 -11.442 -54.657 -235.328 -13.342
31.632 31.630 -23.957 -197.128 -11.642 -54.657 -235.328 -13.342
31.651 31.650 -24.057001 -197.028 -11.842 -54.657 -235.328 -13.342
31.671 31.670 -24.057001 -197.028 -12.042 -54.657 -235.328 -13.342
31.691 31.690 -24.157001 -197.028 -12.242 -54.657 -235.328 -13.342
31.711 31.710 -24.257002 -197.028 -12.342 -54.657 -235.328 -13.342
31.731 31.730 -24.357002 -196.92801 -12.542 -54.657 -235.328 -13.342
31.751 31.750 -24.457 -196.92801 -12.742 -54.657 -235.328 -13.342
31.771 31.770 -24.457 -196.92801 -12.842 -54.657 -235.328 -13.342
31.791 31.790 -24.457 -196.92801 -12.942 -54.657 -235.328 -13.342
31.811 31.810 -24.557001 -196.828 -13.142 -54.657 -235.328 -13.342
31.831 31.830 -24.557001 -196.828 -13.242 -54.657 -235.328 -13.342
31.850 31.850 -24.557001 -196.828 -13.342 -54.657 -235.328 -13.342
31.870 31.870 -24.557001 -196.828 -13.442 -54.657 -235.328 -13.342
31.890 31.890 -24.657001 -196.828 -13.542 -54.657 -235.328 -13.342
31.911 31.910 -24.657001 -196.828 -13.642 -54.657 -235.328 -13.342
31.931 31.930 -24.557001 -196.828 -13.742 -54.657 -235.328 -13.342
31.951 31.950 -24.557001 -196.92801 -13.842 -54.657 -235.328 -13.342
31.970 31.970 -24.657001 -196.92801 -13.942 -54.657 -235.328 -13.342
31.990 31.990 -24.557001 -196.92801 -13.942 -54.657 -235.328 -13.342
32.010 32.010 -24.557001 -197.028 -14.042 -54.657 -235.328 -13.342
32.030 32.030 -24.657001 -197.028 -14.142 -54.657 -235.328 -13.342
32.051 32.050 -24.657001 -197.028 -14.142 -54.657 -235.328 -13.342
32.071 32.070 -24.657001 -197.028 -14.242 -54.657 -235.328 -13.342
32.091 32.090 -24.657001 -197.028 -14.342 -54.657 -235.328 -13.342
32.111 32.110 -24.557001 -197.028 -14.442 -54.657 -235.328 -13.342
32.131 32.130 -24.557001 -197.028 -14.542 -54.657 -235.328 -13.342
32.152 32.150 -24.557001 -197.128 -14.642 -54.657 -235.328 -13.342
32.171 32.170 -24.557001 -197.128 -14.642 -54.657 -235.328 -13.342
32.191 32.190 -24.557001 -197.128 -14.542 -54.657 -235.328 -13.342
32.213 32.210 -24.557001 -197.128 -14.642 -54.657 -235.328 -13.342
32.231 32.230 -24.557001 -197.128 -14.642 -54.657 -235.328 -13.342
32.251 32.250 -24.557001 -197.228 -14.542 -54.657 -235.328 -13.342
32.271 32.270 -24.557001 -197.228 -14.542 -54.657 -235.328 -13.342
32.291 32.290 -24.557001 -197.328 -14.542 -54.657 -235.328 -13.342
32.311 32.310 -24.457 -197.328 -14.542 -54.657 -235.328 -13.342
32.331 32.330 -24.457 -197.328 -14.542 -54.657 -235.328 -13.342
32.351 32.350 -24.457 -197.328 -14.542 -54.657 -235.328 -13.342
32.371 32.370 -24.357002 -197.328 -14.542 -54.657 -235.328 -13.342
32.391 32.390 -24.357002 -197.42801 -14.542 -54.657 -235.328 -13.342
32.411 32.410 -24.357002 -197.42801 -14.542 -54.657 -235.328 -13.342
32.431 32.430 -24.357002 -197.42801 -14.642 -54.657 -235.328 -13.342
32.451 32.450 -24.357002 -197.42801 -14.542 -54.657 -235.328 -13.342
32.471 32.470 -24.257002 -197.42801 -14.442 -54.657 -235.328 -13.342
32.491 32.490 -24.257002 -197.42801 -14.442 -54.657 -235.328 -13.342
32.511 32.510 -24.257002 -197.528 -14.442 -54.657 -235.328 -13.342
32.531 32.530 -24.357002 -197.528 -14.442 -54.657 -235.328 -13.342
32.551 32.550 -24.257002 -197.528 -14.542 -54.657 -235.328 -13.342
32.571 32.570 -24.257002 -197.528 -14.442 -54.657 -235.328 -13.342
32.591 32.590 -24.157001 -197.528 -14.542 -54.657 -235.328 -13.342
32.611 32.610 -24.157001 -197.528 -14.442 -54.657 -235.328 -13.342
32.631 32.630 -24.157001 -197.528 -14.442 -54.657 -235.328 -13.342
32.651 32.650 -24.157001 -197.528 -14.442 -54.657 -235.328 -13.342
32.671 32.670 -24.057001 -197.528 -14.342 -54.657 -235.328 -13.342
32.692 32.690 -24.057001 -197.528 -14.342 -54.657 -235.328 -13.342
32.711 32.710 -24.057001 -197.528 -14.242 -54.657 -235.328 -13.342
32.731 32.730 -24.057001 -197.628 -14.242 -54.657 -235.328 -13.342
32.751 32.750 -24.057001 -197.628 -14.242 -54.657 -235.328 -13.342
32.771 32.770 -24.057001 -197.528 -14.242 -54.657 -235.328 -13.342
32.791 32.790 -24.057001 -197.628 -14.242 -54.657 -235.328 -13.342
32.811 32.810 -24.157001 -197.528 -14.242 -54.657 -235.328 -13.342
32.831 32.830 -24.057001 -197.528 -14.242 -54.657 -235.328 -13.342
32.851 32.850 -24.057001 -197.528 -14.242 -54.657 -235.328 -13.342
32.872 32.870 -24.057001 -197.528 -14.242 -54.657 -235.328 -13.342
32.892 32.890 -24.057001 -197.528 -14.242 -54.657 -235.328 -13.342
32.911 32.910 -24.057001 -197.528 -14.242 -54.657 -235.328 -13.342
32.931 32.930 -23.957 -197.42801 -14.242 -54.657 -235.328 -13.342
32.951 32.950 -23.957 -197.42801 -14.142 -54.657 -235.328 -13.342
32.971 32.970 -23.957 -197.528 -14.142 -54.657 -235.328 -13.342
32.991 32.990 -23.957 -197.42801 -14.142 -54.657 -235.328 -13.342
33.011 33.010 -23.957 -197.42801 -14.142 -54.657 -235.328 -13.342
33.031 33.030 -24.057001 -197.42801 -14.042 -54.657 -235.328 -13.342
33.051 33.050 -24.057001 -197.42801 -13.942 -54.657 -235.328 -13.342
33.071 33.070 -24.057001 -197.42801 -13.942 -54.657 -235.328 -13.342
33.091 33.090 -24.057001 -197.42801 -13.942 -54.657 -235.328 -13.342
33.111 33.110 -24.057001 -197.42801 -13.942 -54.657 -235.328 -13.342
33.131 33.130 -24.057001 -197.42801 -13.942 -54.657 -235.328 -13.342
33.151 33.150 -24.157001 -197.42801 -13.942 -54.657 -235.328 -13.342
33.171 33.170 -24.157001 -197.42801 -13.942 -54.657 -235.328 -13.342
33.194 33.190 -24.157001 -197.42801 -13.942 -54.657 -235.328 -13.342
33.211 33.210 -24.157001 -197.42801 -13.942 -54.657 -235.328 -13.342
33.231 33.230 -24.157001 -197.328 -13.842 -54.657 -235.328 -13.342
33.251 33.250 -24.157001 -197.328 -13.842 -54.657 -235.328 -13.342
33.271 33.270 -24.157001 -197.328 -13.842 -54.657 -235.328 -13.342
33.291 33.290 -24.157001 -197.328 -13.842 -54.657 -235.328 -13.342
33.311 33.310 -24.157001 -197.328 -13.842 -54.657 -235.328 -13.342
33.331 33.330 -24.057001 -197.328 -13.842 -54.657 -235.328 -13.342
33.351 33.350 -24.057001 -197.328 -13.842 -54.657 -235.328 -13.342
33.371 33.370 -24.057001 -197.328 -13.842 -54.657 -235.328 -13.342
33.391 33.390 -24.057001 -197.328 -13.842 -54.657 -235.328 -13.342
33.411 33.410 -24.057001 -197.328 -13.842 -54.657 -235.328 -13.342
33.431 33.430 -24.157001 -197.328 -13.842 -54.657 -235.328 -13.342
33.451 33.450 -24.157001 -197.328 -13.842 -54.657 -235.328 -13.342
33.471 33.470 -24.157001 -197.328 -13.842 -54.657 -235.328 -13.342
33.493 33.490 -24.157001 -197.328 -13.842 -54.657 -235.328 -13.342
33.511 33.510 -24.157001 -197.228 -13.942 -54.657 -235.328 -13.342
33.531 33.530 -24.257002 -197.328 -13.942 -54.657 -235.328 -13.342
33.551 33.550 -24.257002 -197.228 -13.942 -54.657 -235.328 -13.342
33.571 33.570 -24.357002 -197.228 -13.942 -54.657 -235.328 -13.342
33.591 33.590 -24.357002 -197.228 -13.942 -54.657 -235.328 -13.342
33.611 33.610 -24.357002 -197.228 -13.942 -54.657 -235.328 -13.342
33.631 33.630 -24.457 -197.228 -14.042 -54.657 -235.328 -13.342
33.651 33.650 -24.457 -197.128 -14.042 -54.657 -235.328 -13.342
33.671 33.670 -24.457 -197.128 -14.142 -54.657 -235.328 -13.342
33.691 33.690 -24.457 -197.128 -14.142 -54.657 -235.328 -13.342
33.711 33.710 -24.557001 -197.128 -14.142 -54.657 -235.328 -13.342
33.732 33.730 -24.557001 -197.128 -14.142 -54.657 -235.328 -13.342
33.751 33.750 -24.557001 -197.128 -14.242 -54.657 -235.328 -13.342
33.771 33.770 -24.657001 -197.128 -14.242 -54.657 -235.328 -13.342
33.792 33.790 -24.657001 -197.128 -14.242 -54.657 -235.328 -13.342
33.811 33.810 -24.757002 -197.028 -14.242 -54.657 -235.328 -13.342
33.831 33.830 -24.757002 -197.028 -14.342 -54.657 -235.328 -13.342
33.851 33.850 -24.757002 -197.028 -14.342 -54.657 -235.328 -13.342
33.871 33.870 -24.857002 -197.028 -14.342 -54.657 -235.328 -13.342
33.891 33.890 -24.857002 -197.028 -14.342 -54.657 -235.328 -13.342
33.911 33.910 -24.957 -197.028 -14.342 -54.657 -235.328 -13.342
33.931 33.930 -24.957 -197.028 -14.442 -54.657 -235.328 -13.342
33.951 33.950 -25.057001 -196.92801 -14.342 -54.657 -235.328 -13.342
33.971 33.970 -25.057001 -196.92801 -14.342 -54.657 -235.328 -13.342
33.991 33.990 -25.057001 -196.92801 -14.342 -54.657 -235.328 -13.342
34.011 34.010 -25.057001 -196.92801 -14.342 -54.657 -235.328 -13.342
34.032 34.030 -25.057001 -196.828 -14.442 -54.657 -235.328 -13.342
34.051 34.050 -25.157001 -196.828 -14.442 -54.657 -235.328 -13.342
34.071 34.070 -25.157001 -196.828 -14.442 -54.657 -235.328 -13.342
34.091 34.090 -25.157001 -196.828 -14.442 -54.657 -235.328 -13.342
34.111 34.110 -25.257002 -196.828 -14.442 -54.657 -235.328 -13.342
34.131 34.130 -25.257002 -196.828 -14.442 -54.657 -235.328 -13.342
34.151 34.150 -25.257002 -196.828 -14.442 -54.657 -235.328 -13.342
34.171 34.170 -25.357002 -196.728 -14.542 -54.657 -235.328 -13.342
34.191 34.190 -25.357002 -196.728 -14.542 -54.657 -235.328 -13.342
34.211 34.210 -25.457 -196.728 -14.642 -54.657 -235.328 -13.342
34.231 34.230 -25.457 -196.628 -14.742 -54.657 -235.328 -13.342
34.251 34.250 -25.457 -196.628 -14.742 -54.657 -235.328 -13.342
34.271 34.270 -25.557001 -196.628 -14.742 -54.657 -235.328 -13.342
34.291 34.290 -25.557001 -196.628 -14.842 -54.657 -235.328 -13.342
34.311 34.310 -25.657001 -196.528 -14.842 -54.657 -235.328 -13.342
34.331 34.330 -25.657001 -196.528 -14.942 -54.657 -235.328 -13.342
34.351 34.350 -25.757002 -196.528 -14.942 -54.657 -235.328 -13.342
34.371 34.370 -25.757002 -196.42801 -14.942 -54.657 -235.328 -13.342
34.392 34.390 -25.857002 -196.42801 -14.942 -54.657 -235.328 -13.342
34.411 34.410 -25.857002 -196.42801 -15.042 -54.657 -235.328 -13.342
34.431 34.430 -25.957 -196.42801 -15.042 -54.657 -235.328 -13.342
34.451 34.450 -26.057001 -196.42801 -15.042 -54.657 -235.328 -13.342
34.471 34.470 -26.057001 -196.328 -15.142 -54.657 -235.328 -13.342
34.491 34.490 -26.157001 -196.328 -15.142 -54.657 -235.328 -13.342
34.511 34.510 -26.257002 -196.228 -15.142 -54.657 -235.328 -13.342
34.531 34.530 -26.357002 -196.228 -15.242 -54.657 -235.328 -13.342
34.551 34.550 -26.357002 -196.228 -15.342 -54.657 -235.328 -13.342
34.571 34.570 -26.457 -196.228 -15.441999 -54.657 -235.328 -13.342
34.591 34.590 -26.557001 -196.228 -15.542 -54.657 -235.328 -13.342
34.611 34.610 -26.557001 -196.128 -15.542 -54.657 -235.328 -13.342
34.631 34.630 -26.657001 -196.128 -15.642 -54.657 -235.328 -13.342
34.651 34.650 -26.757002 -196.128 -15.642 -54.657 -235.328 -13.342
34.671 34.670 -26.857002 -196.128 -15.642 -54.657 -235.328 -13.342
34.691 34.690 -26.857002 -196.128 -15.642 -54.657 -235.328 -13.342
34.711 34.710 -26.957 -196.128 -15.742001 -54.657 -235.328 -13.342
34.731 34.730 -26.957 -196.028 -15.742001 -54.657 -235.328 -13.342
34.751 34.750 -27.057001 -196.028 -15.742001 -54.657 -235.328 -13.342
34.771 34.770 -27.057001 -196.028 -15.842 -54.657 -235.328 -13.342
34.791 34.790 -27.157001 -196.028 -15.842 -54.657 -235.328 -13.342
34.811 34.810 -27.157001 -196.028 -15.842 -54.657 -235.328 -13.342
34.831 34.830 -27.257002 -196.028 -15.842 -54.657 -235.328 -13.342
34.851 34.850 -27.357002 -196.028 -15.842 -54.657 -235.328 -13.342
34.871 34.870 -27.357002 -196.028 -15.842 -54.657 -235.328 -13.342
34.891 34.890 -27.457 -196.028 -15.842 -54.657 -235.328 -13.342
34.911 34.910 -27.557001 -196.028 -15.941999 -54.657 -235.328 -13.342
34.931 34.930 -27.657001 -195.92801 -15.941999 -54.657 -235.328 -13.342
34.951 34.950 -27.657001 -195.92801 -15.941999 -54.657 -235.328 -13.342
34.972 34.970 -27.757002 -195.92801 -15.941999 -54.657 -235.328 -13.342
34.991 34.990 -27.857002 -195.828 -16.042 -54.657 -235.328 -13.342
35.011 35.010 -27.957 -195.828 -16.042 -54.657 -235.328 -13.342
35.031 35.030 -28.157001 -195.728 -16.042 -54.657 -235.328 -13.342
35.054 35.050 -28.357002 -195.628 -16.142 -54.657 -235.328 -13.342
35.070 35.070 -28.557001 -195.628 -16.142 -54.657 -235.328 -13.342
35.090 35.090 -28.857002 -195.528 -16.142 -54.657 -235.328 -13.342
35.111 35.110 -29.057001 -195.42801 -16.242 -54.657 -235.328 -13.342
35.131 35.130 -29.357002 -195.228 -16.342 -54.657 -235.328 -13.342
35.151 35.150 -30.652002 -194.975 -16.525 -54.657 -235.328 -13.342
35.171 35.170 -33.181 -194.215 -17.034 -54.657 -235.328 -13.342
35.191 35.190 -35.260002 -193.89 -16.865 -54.657 -235.328 -13.342
35.211 35.210 -36.520004 -193.192 -17.118 -54.657 -235.328 -13.342
35.231 35.230 -40.779 -193.057 -17.315 -54.657 -235.328 -13.342
35.251 35.250 -43.705 -192.961 -17.675 -54.657 -235.328 -13.342
35.271 35.270 -46.302002 -192.541 -17.267 -54.657 -235.328 -13.342
35.291 35.290 -48.263 -193.139 -17.06 -54.657 -235.328 -13.342
35.311 35.310 -50.56 -193.363 -17.624 -54.657 -235.328 -13.342
35.331 35.330 -50.756 -193.345 -17.656 -54.657 -235.328 -13.342
35.353 35.350 -52.585003 -194.042 -19.095 -54.657 -235.328 -13.342
35.371 35.370 -53.675003 -194.514 -18.282 -54.657 -235.328 -13.342
35.391 35.390 -54.805 -195.103 -17.439 -45.5 -238.8 -2.0
35.411 35.410 -56.033 -195.171 -19.738 -45.5 -238.8 -2.0
35.431 35.430 -56.586 -196.36 -22.311 -45.5 -238.8 -2.0
35.451 35.450 -57.598 -197.75601 -24.573 -45.5 -238.8 -2.0
35.471 35.470 -58.593002 -198.554 -25.614 -45.5 -238.8 -2.0
35.491 35.490 -60.939 -199.694 -26.034 -45.5 -238.8 -2.0
35.511 35.510 -62.943 -200.75299 -28.866 -45.8 -237.5 -1.3
35.531 35.530 -63.922997 -202.58301 -28.646 -45.8 -237.5 -1.3
35.552 35.550 -65.125 -203.601 -28.720999 -45.8 -237.5 -1.3
35.571 35.570 -65.733 -204.244 -30.011 -45.8 -237.5 -1.3
35.591 35.590 -65.484 -205.692 -32.208 -45.8 -237.5 -1.3
35.611 35.610 -66.045 -208.449 -35.041 -45.8 -237.5 -1.3
35.631 35.630 -65.781 -210.235 -37.249 -45.8 -237.5 -1.3
35.651 35.650 -65.215 -210.364 -39.451 -45.8 -237.5 -1.3
35.671 35.670 -64.691 -212.339 -40.725 -45.8 -237.5 -1.3
35.691 35.690 -64.134 -213.64 -42.621 -45.8 -237.5 -1.3
35.711 35.710 -63.04 -214.791 -43.572998 -45.8 -237.5 -1.3
35.731 35.730 -62.22 -216.256 -45.151 -45.8 -237.5 -1.3
35.751 35.750 -62.208 -218.379 -47.348 -45.8 -237.5 -1.3
35.770 35.770 -60.823997 -219.522 -48.302998 -45.8 -237.5 -1.3
35.790 35.790 -61.149 -221.682 -48.646 -45.8 -237.5 -1.3
35.810 35.810 -59.723 -224.119 -51.454998 -45.8 -237.5 -1.3
35.832 35.830 -58.381 -225.293 -51.165 -45.8 -237.5 -1.3
35.852 35.850 -58.670998 -226.301 -51.822998 -45.8 -237.5 -1.3
35.871 35.870 -57.853 -227.127 -52.149998 -45.8 -237.5 -1.3
35.891 35.890 -57.326 -228.68399 -53.134003 -46.8 -241.2 -3.4
35.911 35.910 -56.822998 -229.689 -52.525 -46.8 -241.2 -3.4
35.931 35.930 -55.656 -230.11499 -55.300003 -46.8 -241.2 -3.4
35.951 35.950 -54.61 -230.282 -54.384003 -46.8 -241.2 -3.4
35.971 35.970 -51.313 -229.898 -55.588 -46.8 -241.2 -3.4
35.991 35.990 -51.893997 -231.07399 -55.297 -46.8 -241.2 -3.4
36.011 36.010 -48.573 -233.02399 -56.558002 -45.9 -241.9 -4.4
36.031 36.030 -46.695 -233.019 -56.532 -46.671 -241.3 -3.542
36.051 36.050 -44.458 -233.17601 -58.07 -46.671 -241.3 -3.542
36.071 36.070 -40.621002 -232.213 -58.077 -46.671 -241.3 -3.542
36.091 36.090 -38.18 -230.474 -56.567 -46.671 -241.3 -3.542
36.112 36.110 -36.773003 -229.037 -56.888 -46.671 -241.3 -3.542
36.131 36.130 -35.387 -226.649 -55.995 -46.671 -241.3 -3.542
36.151 36.150 -34.321 -224.13 -53.588 -46.671 -241.3 -3.542
36.170 36.170 -34.036003 -221.642 -51.838 -45.9 -241.9 -4.4
36.191 36.190 -34.08 -217.822 -49.413 -46.671 -241.3 -3.542
36.211 36.210 -33.183002 -217.639 -50.928 -46.671 -241.3 -3.542
36.232 36.230 -34.241 -217.672 -50.36 -46.671 -241.3 -3.542
36.263 36.250 -34.263 -218.52301 -48.874 -46.671 -241.3 -3.542
36.271 36.270 -32.836002 -218.658 -50.376 -46.671 -241.3 -3.542
36.291 36.290 -33.071 -219.623 -50.39 -46.671 -241.3 -3.542
36.311 36.310 -32.789 -220.451 -50.096 -46.671 -241.3 -3.542
36.331 36.330 -33.529 -220.59601 -51.013 -46.671 -241.3 -3.542
36.351 36.350 -33.778 -220.457 -50.717 -46.671 -241.3 -3.542
36.371 36.370 -34.784 -220.6 -51.626 -46.671 -241.3 -3.542
36.391 36.390 -33.736 -220.488 -50.141 -46.671 -241.3 -3.542
36.411 36.410 -32.873 -220.448 -51.322 -46.671 -241.3 -3.542
36.431 36.430 -34.738003 -221.11101 -50.153 -46.671 -241.3 -3.542
36.451 36.450 -34.402 -221.078 -51.922 -46.671 -241.3 -3.542
36.472 36.470 -34.631 -220.767 -51.923 -46.671 -241.3 -3.542
36.491 36.490 -34.337 -221.384 -52.505 -46.671 -241.3 -3.542
36.511 36.510 -34.828003 -221.239 -52.232 -46.671 -241.3 -3.542
36.531 36.530 -34.326 -221.11801 -51.373 -46.671 -241.3 -3.542
36.550 36.550 -34.991 -221.84401 -52.761 -46.671 -241.3 -3.542
36.570 36.570 -35.197002 -221.853 -52.211998 -46.671 -241.3 -3.542
36.591 36.590 -35.346 -222.102 -52.722 -46.671 -241.3 -3.542
36.611 36.610 -35.006 -221.547 -52.673 -46.671 -241.3 -3.542
36.631 36.630 -34.504 -221.876 -51.93 -46.671 -241.3 -3.542
36.651 36.650 -34.334 -221.994 -52.742 -46.671 -241.3 -3.542
36.671 36.670 -34.145 -221.336 -51.982 -46.671 -241.3 -3.542
36.691 36.690 -33.891003 -221.014 -51.508 -46.671 -241.3 -3.542
36.711 36.710 -33.871002 -220.7 -51.342 -46.671 -241.3 -3.542
36.731 36.730 -33.871002 -220.6 -51.242 -46.671 -241.3 -3.542
36.751 36.750 -33.871002 -220.5 -51.242 -46.671 -241.3 -3.542
36.771 36.770 -33.871002 -220.5 -51.242 -46.671 -241.3 -3.542
36.791 36.790 -33.971 -220.6 -51.442 -46.671 -241.3 -3.542
36.811 36.810 -34.071 -220.8 -51.442 -46.671 -241.3 -3.542
36.832 36.830 -34.071 -221.0 -51.542 -46.671 -241.3 -3.542
36.851 36.850 -34.171 -221.0 -51.642 -46.671 -241.3 -3.542
36.871 36.870 -34.171 -221.2 -51.742 -46.671 -241.3 -3.542
36.891 36.890 -34.271004 -221.3 -51.842 -46.671 -241.3 -3.542
36.915 36.910 -34.371002 -221.3 -51.942 -46.671 -241.3 -3.542
36.931 36.930 -34.371002 -221.40001 -52.042 -46.671 -241.3 -3.542
36.951 36.950 -34.471 -221.40001 -52.042 -46.671 -241.3 -3.542
36.971 36.970 -34.471 -221.5 -52.142 -46.671 -241.3 -3.542
36.991 36.990 -34.471 -221.5 -52.142 -46.671 -241.3 -3.542
37.011 37.010 -34.571 -221.6 -52.242 -46.671 -241.3 -3.542
37.031 37.030 -34.571 -221.6 -52.342 -46.671 -241.3 -3.542
37.050 37.050 -34.571 -221.6 -52.342 -46.671 -241.3 -3.542
37.071 37.070 -34.671 -221.7 -52.442 -46.671 -241.3 -3.542
37.091 37.090 -34.671 -221.7 -52.342 -46.671 -241.3 -3.542
37.111 37.110 -34.671 -221.7 -52.442 -46.671 -241.3 -3.542
37.131 37.130 -34.671 -221.7 -52.442 -46.671 -241.3 -3.542
37.151 37.150 -34.771004 -221.7 -52.442 -46.671 -241.3 -3.542
37.171 37.170 -34.771004 -221.7 -52.442 -46.671 -241.3 -3.542
37.191 37.190 -34.771004 -221.7 -52.442 -46.671 -241.3 -3.542
37.214 37.210 -34.771004 -221.7 -52.442 -46.671 -241.3 -3.542
37.231 37.230 -34.771004 -221.7 -52.442 -46.671 -241.3 -3.542
37.251 37.250 -34.771004 -221.6 -52.442 -46.671 -241.3 -3.542
37.271 37.270 -34.871002 -221.7 -52.442 -46.671 -241.3 -3.542
37.291 37.290 -34.871002 -221.7 -52.542 -46.671 -241.3 -3.542
37.311 37.310 -34.971 -221.7 -52.542 -46.671 -241.3 -3.542
37.331 37.330 -34.971 -221.7 -52.542 -46.671 -241.3 -3.542
37.352 37.350 -34.971 -221.7 -52.542 -46.671 -241.3 -3.542
37.371 37.370 -34.971 -221.7 -52.542 -46.671 -241.3 -3.542
37.391 37.390 -34.971 -221.6 -52.542 -46.671 -241.3 -3.542
37.411 37.410 -35.071 -221.6 -52.542 -46.671 -241.3 -3.542
37.431 37.430 -35.071 -221.6 -52.542 -46.671 -241.3 -3.542
37.451 37.450 -35.171 -221.6 -52.542 -46.671 -241.3 -3.542
37.471 37.470 -35.271004 -221.6 -52.542 -46.671 -241.3 -3.542
37.491 37.490 -35.271004 -221.6 -52.542 -46.671 -241.3 -3.542
37.511 37.510 -35.271004 -221.5 -52.442 -46.671 -241.3 -3.542
37.531 37.530 -35.371002 -221.5 -52.542 -46.671 -241.3 -3.542
37.551 37.550 -35.371002 -221.5 -52.542 -46.671 -241.3 -3.542
37.571 37.570 -35.471 -221.5 -52.542 -46.671 -241.3 -3.542
37.591 37.590 -35.471 -221.5 -52.542 -46.671 -241.3 -3.542
37.611 37.610 -35.471 -221.5 -52.542 -46.671 -241.3 -3.542
37.631 37.630 -35.471 -221.5 -52.542 -46.671 -241.3 -3.542
37.652 37.650 -35.471 -221.5 -52.642 -46.671 -241.3 -3.542
37.671 37.670 -35.571 -221.5 -52.642 -46.671 -241.3 -3.542
37.691 37.690 -35.571 -221.5 -52.642 -46.671 -241.3 -3.542
37.711 37.710 -35.571 -221.5 -52.642 -46.671 -241.3 -3.542
37.731 37.730 -35.571 -221.5 -52.742 -46.671 -241.3 -3.542
37.751 37.750 -35.571 -221.5 -52.742 -46.671 -241.3 -3.542
37.771 37.770 -35.571 -221.5 -52.742 -46.671 -241.3 -3.542
37.791 37.790 -35.571 -221.5 -52.742 -46.671 -241.3 -3.542
37.811 37.810 -35.571 -221.5 -52.742 -46.671 -241.3 -3.542
37.831 37.830 -35.671 -221.5 -52.742 -46.671 -241.3 -3.542
37.851 37.850 -35.571 -221.5 -52.742 -46.671 -241.3 -3.542
37.871 37.870 -35.571 -221.5 -52.642 -46.671 -241.3 -3.542
37.892 37.890 -35.571 -221.5 -52.642 -46.671 -241.3 -3.542
37.911 37.910 -35.571 -221.40001 -52.742 -46.671 -241.3 -3.542
37.932 37.930 -35.571 -221.40001 -52.642 -46.671 -241.3 -3.542
37.952 37.950 -35.571 -221.40001 -52.642 -46.671 -241.3 -3.542
37.971 37.970 -35.671 -221.40001 -52.642 -46.671 -241.3 -3.542
37.991 37.990 -35.571 -221.40001 -52.642 -46.671 -241.3 -3.542
38.012 38.010 -35.571 -221.5 -52.642 -46.671 -241.3 -3.542
38.031 38.030 -35.571 -221.5 -52.642 -46.671 -241.3 -3.542
38.051 38.050 -35.571 -221.5 -52.742 -46.671 -241.3 -3.542
38.071 38.070 -35.571 -221.5 -52.642 -46.671 -241.3 -3.542
38.091 38.090 -35.571 -221.5 -52.642 -46.671 -241.3 -3.542
38.111 38.110 -35.571 -221.5 -52.642 -46.671 -241.3 -3.542
38.131 38.130 -35.471 -221.5 -52.642 -46.671 -241.3 -3.542
38.151 38.150 -35.471 -221.5 -52.642 -46.671 -241.3 -3.542
38.171 38.170 -35.471 -221.5 -52.642 -46.671 -241.3 -3.542
38.191 38.190 -35.471 -221.5 -52.642 -46.671 -241.3 -3.542
38.211 38.210 -35.371002 -221.40001 -52.642 -46.671 -241.3 -3.542
38.231 38.230 -35.371002 -221.5 -52.542 -46.671 -241.3 -3.542
38.251 38.250 -35.471 -221.5 -52.542 -46.671 -241.3 -3.542
38.271 38.270 -35.471 -221.5 -52.542 -46.671 -241.3 -3.542
38.291 38.290 -35.471 -221.40001 -52.542 -46.671 -241.3 -3.542
38.312 38.310 -35.471 -221.40001 -52.442 -46.671 -241.3 -3.542
38.331 38.330 -35.471 -221.40001 -52.442 -46.671 -241.3 -3.542
38.351 38.350 -35.471 -221.40001 -52.342 -46.671 -241.3 -3.542
38.371 38.370 -35.471 -221.40001 -52.342 -46.671 -241.3 -3.542
38.394 38.390 -35.471 -221.40001 -52.342 -46.671 -241.3 -3.542
38.411 38.410 -35.471 -221.3 -52.342 -46.671 -241.3 -3.542
38.431 38.430 -35.471 -221.3 -52.342 -46.671 -241.3 -3.542
38.451 38.450 -35.471 -221.3 -52.342 -46.671 -241.3 -3.542
38.471 38.471 -35.471 -221.2 -52.342 -46.671 -241.3 -3.542
38.491 38.490 -35.371002 -221.2 -52.342 -46.671 -241.3 -3.542
38.511 38.510 -35.371002 -221.3 -52.342 -46.671 -241.3 -3.542
38.531 38.530 -35.371002 -221.2 -52.342 -46.671 -241.3 -3.542
38.551 38.550 -35.371002 -221.2 -52.442 -46.671 -241.3 -3.542
38.571 38.570 -35.371002 -221.2 -52.442 -46.671 -241.3 -3.542
38.591 38.590 -35.371002 -221.2 -52.442 -46.671 -241.3 -3.542
38.611 38.610 -35.371002 -221.2 -52.442 -46.671 -241.3 -3.542
38.631 38.630 -35.371002 -221.2 -52.442 -46.671 -241.3 -3.542
38.651 38.650 -35.371002 -221.2 -52.342 -46.671 -241.3 -3.542
38.672 38.670 -35.371002 -221.2 -52.442 -46.671 -241.3 -3.542
38.693 38.690 -35.371002 -221.2 -52.442 -46.671 -241.3 -3.542
38.711 38.710 -35.371002 -221.2 -52.442 -46.671 -241.3 -3.542
38.731 38.730 -35.371002 -221.2 -52.442 -46.671 -241.3 -3.542
38.751 38.750 -35.371002 -221.2 -52.442 -46.671 -241.3 -3.542
38.772 38.770 -35.371002 -221.2 -52.442 -46.671 -241.3 -3.542
38.791 38.790 -35.371002 -221.1 -52.442 -46.671 -241.3 -3.542
38.811 38.810 -35.371002 -221.1 -52.442 -46.671 -241.3 -3.542
38.831 38.830 -35.371002 -221.2 -52.442 -46.671 -241.3 -3.542
38.851 38.850 -35.371002 -221.2 -52.342 -46.671 -241.3 -3.542
38.871 38.870 -35.371002 -221.1 -52.442 -46.671 -241.3 -3.542
38.893 38.890 -35.271004 -221.1 -52.442 -46.671 -241.3 -3.542
38.911 38.910 -35.271004 -221.1 -52.442 -46.671 -241.3 -3.542
38.931 38.930 -35.271004 -221.1 -52.442 -46.671 -241.3 -3.542
38.951 38.950 -35.271004 -221.1 -52.442 -46.671 -241.3 -3.542
38.971 38.970 -35.271004 -221.1 -52.442 -46.671 -241.3 -3.542
38.991 38.990 -35.271004 -221.1 -52.442 -46.671 -241.3 -3.542
39.011 39.010 -35.271004 -221.2 -52.442 -46.671 -241.3 -3.542
39.031 39.030 -35.271004 -221.2 -52.542 -46.671 -241.3 -3.542
39.051 39.050 -35.271004 -221.3 -52.542 -46.671 -241.3 -3.542
39.072 39.070 -35.271004 -221.3 -52.442 -46.671 -241.3 -3.542
39.091 39.090 -35.371002 -221.3 -52.442 -46.671 -241.3 -3.542
39.111 39.110 -35.371002 -221.3 -52.542 -46.671 -241.3 -3.542
39.131 39.130 -35.271004 -221.3 -52.442 -46.671 -241.3 -3.542
39.151 39.150 -35.271004 -221.3 -52.442 -46.671 -241.3 -3.542
39.171 39.170 -35.271004 -221.3 -52.442 -46.671 -241.3 -3.542
39.191 39.190 -35.271004 -221.3 -52.442 -46.671 -241.3 -3.542
39.212 39.210 -35.271004 -221.3 -52.342 -46.671 -241.3 -3.542
39.231 39.230 -35.271004 -221.3 -52.542 -46.671 -241.3 -3.542
39.251 39.250 -35.271004 -221.3 -52.542 -46.671 -241.3 -3.542
39.274 39.270 -35.371002 -221.3 -52.542 -46.671 -241.3 -3.542
39.291 39.290 -35.371002 -221.40001 -52.642 -46.671 -241.3 -3.542
39.311 39.310 -35.371002 -221.3 -52.642 -46.671 -241.3 -3.542
39.331 39.330 -35.371002 -221.3 -52.642 -46.671 -241.3 -3.542
39.351 39.350 -35.371002 -221.40001 -52.642 -46.671 -241.3 -3.542
39.371 39.370 -35.371002 -221.3 -52.642 -46.671 -241.3 -3.542
39.391 39.390 -35.471 -221.40001 -52.742 -46.671 -241.3 -3.542
39.411 39.410 -35.471 -221.40001 -52.742 -46.671 -241.3 -3.542
39.431 39.430 -35.471 -221.40001 -52.742 -46.671 -241.3 -3.542
39.451 39.450 -35.471 -221.3 -52.742 -46.671 -241.3 -3.542
39.471 39.470 -35.471 -221.40001 -52.742 -46.671 -241.3 -3.542
39.491 39.490 -35.471 -221.40001 -52.642 -46.671 -241.3 -3.542
39.511 39.510 -35.571 -221.40001 -52.642 -46.671 -241.3 -3.542
39.531 39.530 -35.471 -221.3 -52.642 -46.671 -241.3 -3.542
39.551 39.550 -35.471 -221.3 -52.742 -46.671 -241.3 -3.542
39.573 39.570 -35.471 -221.3 -52.742 -46.671 -241.3 -3.542
39.591 39.590 -35.571 -221.3 -52.742 -46.671 -241.3 -3.542
39.611 39.610 -35.571 -221.3 -52.742 -46.671 -241.3 -3.542
39.631 39.630 -35.571 -221.2 -52.642 -46.671 -241.3 -3.542
39.653 39.650 -35.571 -221.2 -52.742 -46.671 -241.3 -3.542
39.671 39.670 -35.571 -221.2 -52.742 -46.671 -241.3 -3.542
39.690 39.690 -35.571 -221.1 -52.742 -46.671 -241.3 -3.542
39.710 39.710 -35.571 -221.1 -52.742 -46.671 -241.3 -3.542
39.731 39.730 -35.571 -221.1 -52.842 -46.671 -241.3 -3.542
39.751 39.750 -35.671 -221.1 -52.842 -46.671 -241.3 -3.542
39.771 39.770 -35.671 -221.1 -52.842 -46.671 -241.3 -3.542
39.790 39.790 -35.671 -221.0 -52.842 -46.671 -241.3 -3.542
39.810 39.810 -35.671 -221.0 -52.842 -46.671 -241.3 -3.542
39.831 39.830 -35.771004 -221.0 -52.842 -46.671 -241.3 -3.542
39.851 39.850 -35.771004 -221.0 -52.742 -46.671 -241.3 -3.542
39.872 39.870 -35.771004 -220.90001 -52.742 -46.671 -241.3 -3.542
39.891 39.890 -35.771004 -220.90001 -52.742 -46.671 -241.3 -3.542
39.911 39.910 -35.871002 -220.90001 -52.742 -46.671 -241.3 -3.542
39.931 39.930 -36.071 -220.90001 -52.642 -46.671 -241.3 -3.542
39.951 39.950 -36.071 -220.8 -52.642 -46.671 -241.3 -3.542
39.971 39.970 -36.171 -220.8 -52.642 -46.671 -241.3 -3.542
39.991 39.990 -36.271004 -220.8 -52.742 -46.671 -241.3 -3.542
40.011 40.010 -36.371002 -220.7 -52.642 -46.671 -241.3 -3.542
40.031 40.030 -33.6 -222.0 -55.0 -43.6 -242.7 -6.0
40.051 40.050 -34.0 -221.9 -55.0 -43.6 -242.7 -6.0
40.072 40.070 -38.66 -221.416 -54.455 -43.6 -242.7 -6.0
40.091 40.090 -42.789 -220.22699 -53.037003 -45.354 -241.9 -4.595
40.111 40.110 -45.994 -220.431 -52.529 -45.354 -241.9 -4.595
40.131 40.130 -51.166 -220.895 -51.955997 -43.2 -242.5 -6.1
40.154 40.150 -54.366 -220.988 -50.913 -43.2 -242.5 -6.1
40.171 40.170 -56.885002 -221.288 -49.591 -43.2 -242.5 -6.1
40.191 40.190 -60.689003 -220.539 -49.147 -43.2 -242.5 -6.1
40.211 40.210 -63.997 -220.438 -46.394997 -43.2 -242.5 -6.1
40.231 40.230 -66.365005 -220.769 -45.087997 -43.2 -242.5 -6.1
40.254 40.250 -70.432 -220.898 -39.584 -43.2 -242.5 -6.1
40.271 40.270 -73.758 -220.761 -39.147 -43.2 -242.5 -6.1
40.291 40.290 -75.173004 -221.93 -37.515 -43.2 -242.5 -6.1
40.311 40.310 -77.089005 -222.166 -35.292 -43.2 -242.5 -6.1
40.331 40.330 -78.701996 -222.713 -33.072 -43.2 -242.5 -6.1
40.351 40.350 -79.777 -223.119 -29.92 -43.2 -242.5 -6.1
40.371 40.370 -81.526 -223.116 -30.48 -43.2 -242.5 -6.1
40.391 40.390 -82.264 -223.364 -27.648 -43.2 -242.5 -6.1
40.411 40.410 -83.229996 -223.418 -25.748001 -43.2 -242.5 -6.1
40.431 40.430 -84.422 -224.252 -25.401001 -43.2 -242.5 -6.1
40.451 40.450 -85.415 -225.51599 -21.957 -41.5 -243.2 -6.6
40.471 40.470 -86.325 -225.875 -21.31 -41.5 -243.2 -6.6
40.491 40.490 -85.796005 -226.202 -21.9 -41.5 -243.2 -6.6
40.511 40.510 -85.859 -226.872 -21.249 -41.5 -243.2 -6.6
40.531 40.530 -87.295 -227.543 -21.239 -41.5 -243.2 -6.6
40.553 40.550 -87.319 -228.221 -21.225 -41.5 -243.2 -6.6
40.571 40.570 -86.806 -227.407 -20.286 -41.5 -243.2 -6.6
40.591 40.590 -86.817 -227.73799 -20.286 -41.5 -243.2 -6.6
40.611 40.610 -86.573 -227.256 -19.36 -41.5 -243.2 -6.6
40.631 40.630 -86.849 -227.56999 -19.976 -41.5 -243.2 -6.6
40.651 40.650 -86.562 -227.887 -20.593 -41.5 -243.2 -6.6
40.671 40.670 -85.729996 -226.737 -20.288 -41.5 -243.2 -6.6
40.691 40.690 -86.813 -227.857 -21.233 -41.5 -243.2 -6.6
40.711 40.710 -87.453995 -228.249 -18.211 -41.5 -243.2 -6.6
40.731 40.730 -86.856995 -228.19899 -20.036 -41.5 -243.2 -6.6
40.751 40.750 -86.615005 -227.409 -18.554 -41.5 -243.2 -6.6
40.771 40.770 -86.319 -227.06 -19.186 -41.5 -243.2 -6.6
40.791 40.790 -88.162994 -228.163 -18.953 -41.5 -243.2 -6.6
40.811 40.810 -86.057 -226.448 -18.697 -41.5 -243.2 -6.6
40.831 40.830 -86.581 -227.219 -17.969 -41.5 -243.2 -6.6
40.851 40.850 -87.082 -227.23 -17.509 -41.5 -243.2 -6.6
40.871 40.870 -87.193 -227.706 -19.686 -41.5 -243.2 -6.6
40.891 40.890 -87.406 -227.33699 -18.09 -41.5 -243.2 -6.6
40.911 40.910 -86.352005 -226.858 -18.296 -41.5 -243.2 -6.6
40.931 40.930 -86.833 -227.483 -18.52 -41.5 -243.2 -6.6
40.951 40.950 -87.074005 -227.305 -18.147 -41.5 -243.2 -6.6
40.971 40.970 -86.937 -227.218 -18.397 -41.5 -243.2 -6.6
40.991 40.990 -86.9 -227.4 -19.1 -41.5 -243.2 -6.6
41.011 41.010 -87.0 -227.5 -18.8 -41.5 -243.2 -6.6
41.031 41.030 -87.2 -227.59999 -18.4 -41.5 -243.2 -6.6
41.051 41.050 -87.3 -227.7 -18.2 -41.5 -243.2 -6.6
41.071 41.070 -87.3 -227.8 -18.0 -41.5 -243.2 -6.6
41.091 41.090 -87.4 -227.8 -17.8 -41.5 -243.2 -6.6
41.111 41.110 -87.5 -227.9 -17.6 -41.5 -243.2 -6.6
41.131 41.130 -87.5 -227.9 -17.5 -41.5 -243.2 -6.6
41.151 41.150 -87.5 -227.9 -17.3 -41.5 -243.2 -6.6
41.171 41.170 -87.5 -227.9 -17.2 -41.5 -243.2 -6.6
41.191 41.190 -87.5 -227.9 -17.1 -41.5 -243.2 -6.6
41.211 41.210 -87.6 -227.9 -17.0 -41.5 -243.2 -6.6
41.231 41.230 -87.6 -228.0 -16.9 -41.5 -243.2 -6.6
41.251 41.250 -87.6 -228.0 -16.7 -41.5 -243.2 -6.6
41.271 41.270 -87.6 -228.0 -16.6 -41.5 -243.2 -6.6
41.291 41.290 -87.6 -228.0 -16.5 -41.5 -243.2 -6.6
41.311 41.310 -87.6 -228.0 -16.4 -41.5 -243.2 -6.6
41.331 41.330 -87.6 -228.0 -16.4 -41.5 -243.2 -6.6
41.351 41.350 -87.7 -228.0 -16.3 -41.5 -243.2 -6.6
41.371 41.370 -87.7 -228.0 -16.3 -41.5 -243.2 -6.6
41.391 41.390 -87.7 -228.0 -16.3 -41.5 -243.2 -6.6
41.411 41.410 -87.7 -228.09999 -16.2 -41.5 -243.2 -6.6
41.434 41.430 -87.7 -228.09999 -16.2 -41.5 -243.2 -6.6
41.451 41.450 -87.7 -228.2 -16.3 -41.5 -243.2 -6.6
41.471 41.470 -87.6 -228.2 -16.2 -41.5 -243.2 -6.6
41.491 41.490 -87.6 -228.2 -16.3 -41.5 -243.2 -6.6
41.511 41.510 -87.6 -228.3 -16.3 -41.5 -243.2 -6.6
41.531 41.530 -87.6 -228.3 -16.3 -41.5 -243.2 -6.6
41.553 41.550 -87.6 -228.3 -16.4 -41.5 -243.2 -6.6
41.572 41.570 -87.6 -228.4 -16.5 -41.5 -243.2 -6.6
41.591 41.590 -87.5 -228.3 -16.6 -41.5 -243.2 -6.6
41.611 41.610 -87.5 -228.4 -16.7 -41.5 -243.2 -6.6
41.631 41.630 -87.5 -228.4 -16.7 -41.5 -243.2 -6.6
41.651 41.650 -87.5 -228.4 -16.8 -41.5 -243.2 -6.6
41.671 41.670 -87.4 -228.4 -16.8 -41.5 -243.2 -6.6
41.691 41.690 -87.4 -228.4 -16.9 -41.5 -243.2 -6.6
41.711 41.710 -87.3 -228.5 -17.0 -41.5 -243.2 -6.6
41.734 41.730 -87.3 -228.5 -17.1 -41.5 -243.2 -6.6
41.751 41.750 -87.2 -228.5 -17.2 -41.5 -243.2 -6.6
41.771 41.770 -87.2 -228.5 -17.2 -41.5 -243.2 -6.6
41.791 41.790 -87.2 -228.5 -17.3 -41.5 -243.2 -6.6
41.811 41.810 -87.2 -228.59999 -17.4 -41.5 -243.2 -6.6
41.831 41.830 -87.2 -228.59999 -17.5 -41.5 -243.2 -6.6
41.851 41.850 -87.2 -228.59999 -17.6 -41.5 -243.2 -6.6
41.871 41.870 -87.2 -228.59999 -17.6 -41.5 -243.2 -6.6
41.891 41.890 -87.2 -228.7 -17.7 -41.5 -243.2 -6.6
41.911 41.910 -87.2 -228.7 -17.8 -41.5 -243.2 -6.6
41.931 41.930 -87.2 -228.7 -17.8 -41.5 -243.2 -6.6
41.951 41.950 -87.1 -228.7 -17.9 -41.5 -243.2 -6.6
41.971 41.970 -87.1 -228.7 -18.0 -41.5 -243.2 -6.6
41.991 41.990 -87.0 -228.7 -18.0 -41.5 -243.2 -6.6
42.011 42.010 -87.1 -228.8 -18.1 -41.5 -243.2 -6.6
42.033 42.030 -87.1 -228.8 -18.2 -41.5 -243.2 -6.6
42.051 42.050 -87.1 -228.8 -18.2 -41.5 -243.2 -6.6
42.071 42.070 -87.1 -228.8 -18.3 -41.5 -243.2 -6.6
42.091 42.090 -87.1 -228.9 -18.3 -41.5 -243.2 -6.6
42.112 42.110 -87.1 -228.9 -18.4 -41.5 -243.2 -6.6
42.131 42.130 -87.0 -228.9 -18.5 -41.5 -243.2 -6.6
42.151 42.150 -87.0 -228.9 -18.6 -41.5 -243.2 -6.6
42.171 42.170 -87.0 -228.9 -18.6 -41.5 -243.2 -6.6
42.191 42.190 -87.0 -229.0 -18.7 -41.5 -243.2 -6.6
42.211 42.210 -87.0 -229.0 -18.7 -41.5 -243.2 -6.6
42.231 42.230 -86.9 -229.0 -18.8 -41.5 -243.2 -6.6
42.251 42.250 -86.9 -229.0 -19.0 -41.5 -243.2 -6.6
42.271 42.270 -86.9 -229.0 -19.0 -41.5 -243.2 -6.6
42.291 42.290 -86.9 -229.0 -19.0 -41.5 -243.2 -6.6
42.311 42.310 -86.9 -229.09999 -19.1 -41.5 -243.2 -6.6
42.331 42.330 -86.9 -229.09999 -19.2 -41.5 -243.2 -6.6
42.351 42.350 -86.9 -229.09999 -19.3 -41.5 -243.2 -6.6
42.371 42.370 -86.9 -229.09999 -19.3 -41.5 -243.2 -6.6
42.391 42.390 -86.9 -229.09999 -19.3 -41.5 -243.2 -6.6
42.411 42.410 -86.8 -229.09999 -19.5 -41.5 -243.2 -6.6
42.431 42.430 -86.8 -229.2 -19.5 -41.5 -243.2 -6.6
42.451 42.450 -86.8 -229.2 -19.5 -41.5 -243.2 -6.6
42.471 42.470 -86.8 -229.2 -19.6 -41.5 -243.2 -6.6
42.491 42.490 -86.7 -229.2 -19.6 -41.5 -243.2 -6.6
42.511 42.510 -86.7 -229.2 -19.7 -41.5 -243.2 -6.6
42.531 42.530 -86.7 -229.2 -19.8 -41.5 -243.2 -6.6
42.552 42.550 -86.7 -229.3 -19.8 -41.5 -243.2 -6.6
42.571 42.570 -86.8 -229.3 -19.8 -41.5 -243.2 -6.6
42.591 42.590 -86.8 -229.4 -19.8 -41.5 -243.2 -6.6
42.613 42.610 -86.8 -229.4 -19.9 -41.5 -243.2 -6.6
42.631 42.630 -86.7 -229.4 -19.9 -41.5 -243.2 -6.6
42.651 42.650 -86.7 -229.4 -20.0 -41.5 -243.2 -6.6
42.671 42.670 -86.8 -229.4 -20.0 -41.5 -243.2 -6.6
42.691 42.690 -86.8 -229.4 -20.0 -41.5 -243.2 -6.6
42.711 42.710 -86.7 -229.4 -20.0 -41.5 -243.2 -6.6
42.731 42.730 -86.7 -229.4 -20.1 -41.5 -243.2 -6.6
42.751 42.750 -86.7 -229.4 -20.2 -41.5 -243.2 -6.6
42.771 42.770 -86.7 -229.4 -20.2 -41.5 -243.2 -6.6
42.791 42.790 -86.7 -229.4 -20.3 -41.5 -243.2 -6.6
42.811 42.810 -86.7 -229.4 -20.4 -41.5 -243.2 -6.6
42.831 42.830 -86.7 -229.4 -20.4 -41.5 -243.2 -6.6
42.850 42.850 -86.7 -229.5 -20.5 -41.5 -243.2 -6.6
42.871 42.870 -86.7 -229.5 -20.6 -41.5 -243.2 -6.6
42.890 42.890 -86.8 -229.5 -20.6 -41.5 -243.2 -6.6
42.910 42.910 -86.8 -229.4 -20.6 -41.5 -243.2 -6.6
42.931 42.930 -86.8 -229.4 -20.6 -41.5 -243.2 -6.6
42.951 42.950 -86.8 -229.4 -20.7 -41.5 -243.2 -6.6
42.971 42.970 -86.8 -229.5 -20.8 -41.5 -243.2 -6.6
42.991 42.990 -86.8 -229.4 -20.8 -41.5 -243.2 -6.6
43.011 43.010 -86.8 -229.4 -20.8 -41.5 -243.2 -6.6
43.031 43.030 -86.8 -229.4 -20.8 -41.5 -243.2 -6.6
43.052 43.050 -86.8 -229.4 -20.8 -41.5 -243.2 -6.6
43.071 43.070 -86.8 -229.4 -20.9 -41.5 -243.2 -6.6
43.091 43.090 -86.8 -229.4 -20.9 -41.5 -243.2 -6.6
43.111 43.110 -86.8 -229.4 -20.9 -41.5 -243.2 -6.6
43.131 43.130 -86.8 -229.4 -21.0 -41.5 -243.2 -6.6
43.151 43.150 -86.8 -229.4 -21.0 -41.5 -243.2 -6.6
43.171 43.170 -86.8 -229.3 -21.0 -41.5 -243.2 -6.6
43.190 43.190 -86.7 -229.3 -21.0 -41.5 -243.2 -6.6
43.211 43.210 -86.7 -229.3 -21.1 -41.5 -243.2 -6.6
43.230 43.230 -86.7 -229.3 -21.2 -41.5 -243.2 -6.6
43.251 43.250 -86.7 -229.3 -21.3 -41.5 -243.2 -6.6
43.271 43.270 -86.7 -229.3 -21.3 -41.5 -243.2 -6.6
43.291 43.290 -86.7 -229.3 -21.3 -41.5 -243.2 -6.6
43.311 43.310 -86.7 -229.3 -21.4 -41.5 -243.2 -6.6
43.331 43.330 -86.7 -229.3 -21.4 -41.5 -243.2 -6.6
43.351 43.350 -86.7 -229.3 -21.3 -41.5 -243.2 -6.6
43.371 43.370 -86.7 -229.2 -21.4 -41.5 -243.2 -6.6
43.391 43.390 -86.7 -229.2 -21.3 -41.5 -243.2 -6.6
43.411 43.410 -86.7 -229.2 -21.3 -41.5 -243.2 -6.6
43.431 43.430 -86.7 -229.2 -21.4 -41.5 -243.2 -6.6
43.451 43.450 -86.7 -229.2 -21.3 -41.5 -243.2 -6.6
43.471 43.470 -86.7 -229.2 -21.2 -41.5 -243.2 -6.6
43.491 43.490 -86.6 -229.2 -21.3 -41.5 -243.2 -6.6
43.511 43.510 -86.6 -229.2 -21.3 -41.5 -243.2 -6.6
43.531 43.530 -86.6 -229.09999 -21.3 -41.5 -243.2 -6.6
43.551 43.550 -86.6 -229.09999 -21.3 -41.5 -243.2 -6.6
43.571 43.570 -86.6 -229.09999 -21.2 -41.5 -243.2 -6.6
43.595 43.590 -86.6 -229.09999 -21.2 -41.5 -243.2 -6.6
43.611 43.610 -86.6 -229.09999 -21.2 -41.5 -243.2 -6.6
43.631 43.630 -86.6 -229.09999 -21.2 -41.5 -243.2 -6.6
43.651 43.650 -86.6 -229.09999 -21.1 -41.5 -243.2 -6.6
43.671 43.670 -86.6 -229.0 -21.1 -41.5 -243.2 -6.6
43.691 43.690 -86.6 -229.0 -21.1 -41.5 -243.2 -6.6
43.711 43.710 -86.6 -229.0 -21.1 -41.5 -243.2 -6.6
43.731 43.730 -86.6 -229.0 -21.2 -41.5 -243.2 -6.6
43.751 43.750 -86.6 -229.0 -21.2 -41.5 -243.2 -6.6
43.771 43.771 -86.6 -229.0 -21.2 -41.5 -243.2 -6.6
43.791 43.790 -86.6 -228.9 -21.2 -41.5 -243.2 -6.6
43.811 43.810 -86.7 -228.9 -21.1 -41.5 -243.2 -6.6
43.831 43.830 -86.7 -228.9 -21.1 -41.5 -243.2 -6.6
43.851 43.850 -86.7 -228.9 -21.0 -41.5 -243.2 -6.6
43.871 43.870 -86.7 -228.9 -21.0 -41.5 -243.2 -6.6
43.892 43.890 -86.7 -228.9 -21.0 -41.5 -243.2 -6.6
43.911 43.910 -86.7 -228.8 -20.9 -41.5 -243.2 -6.6
43.931 43.930 -86.8 -228.8 -20.8 -41.5 -243.2 -6.6
43.951 43.950 -86.7 -228.8 -20.9 -41.5 -243.2 -6.6
43.971 43.970 -86.8 -228.8 -20.9 -41.5 -243.2 -6.6
43.991 43.990 -86.8 -228.8 -20.8 -41.5 -243.2 -6.6
44.011 44.010 -86.9 -228.8 -20.8 -41.5 -243.2 -6.6
44.031 44.030 -86.9 -228.8 -20.7 -41.5 -243.2 -6.6
44.051 44.050 -86.9 -228.8 -20.8 -41.5 -243.2 -6.6
44.071 44.070 -87.0 -228.8 -20.8 -41.5 -243.2 -6.6
44.091 44.090 -87.0 -228.8 -20.8 -41.5 -243.2 -6.6
44.111 44.110 -87.0 -228.8 -20.8 -41.5 -243.2 -6.6
44.131 44.130 -87.0 -228.8 -20.8 -41.5 -243.2 -6.6
44.151 44.150 -87.1 -228.8 -20.8 -41.5 -243.2 -6.6
44.171 44.170 -87.1 -228.8 -20.8 -41.5 -243.2 -6.6
44.191 44.190 -87.1 -228.8 -20.7 -41.5 -243.2 -6.6
44.211 44.210 -87.2 -228.8 -20.8 -41.5 -243.2 -6.6
44.231 44.230 -87.2 -228.8 -20.7 -41.5 -243.2 -6.6
44.251 44.250 -87.2 -228.8 -20.8 -41.5 -243.2 -6.6
44.271 44.270 -87.2 -228.8 -20.8 -41.5 -243.2 -6.6
44.291 44.290 -87.3 -228.8 -20.8 -41.5 -243.2 -6.6
44.311 44.310 -87.3 -228.8 -20.8 -41.5 -243.2 -6.6
44.331 44.330 -87.3 -228.7 -20.7 -41.5 -243.2 -6.6
44.351 44.350 -87.2 -228.7 -20.7 -41.5 -243.2 -6.6
44.371 44.370 -87.2 -228.7 -20.7 -41.5 -243.2 -6.6
44.391 44.390 -87.2 -228.7 -20.8 -41.5 -243.2 -6.6
44.411 44.410 -87.2 -228.7 -20.8 -41.5 -243.2 -6.6
44.431 44.430 -87.2 -228.7 -20.8 -41.5 -243.2 -6.6
44.451 44.450 -87.2 -228.7 -20.8 -41.5 -243.2 -6.6
44.474 44.470 -87.2 -228.7 -20.8 -41.5 -243.2 -6.6
44.491 44.490 -87.2 -228.59999 -20.8 -41.5 -243.2 -6.6
44.511 44.510 -87.2 -228.59999 -20.9 -41.5 -243.2 -6.6
44.531 44.530 -87.2 -228.59999 -20.9 -41.5 -243.2 -6.6
44.551 44.550 -87.3 -228.59999 -20.9 -41.5 -243.2 -6.6
44.571 44.570 -87.3 -228.5 -20.8 -41.5 -243.2 -6.6
44.591 44.590 -87.3 -228.5 -20.8 -41.5 -243.2 -6.6
44.612 44.610 -87.3 -228.4 -20.7 -41.5 -243.2 -6.6
44.631 44.630 -87.3 -228.3 -20.6 -41.5 -243.2 -6.6
44.651 44.650 -87.4 -228.2 -20.5 -41.5 -243.2 -6.6
44.671 44.670 -87.4 -228.09999 -20.3 -41.5 -243.2 -6.6
44.691 44.690 -87.4 -228.0 -20.0 -41.5 -243.2 -6.6
44.711 44.710 -87.4 -227.9 -19.8 -41.5 -243.2 -6.6
44.731 44.730 -86.8 -227.3 -19.8 -40.8 -242.7 -6.9
44.751 44.750 -87.020004 -226.43199 -17.255 -40.8 -242.7 -6.9
44.774 44.770 -87.048004 -225.482 -15.559 -40.8 -242.7 -6.9
44.791 44.790 -87.166 -225.008 -13.041 -40.8 -242.7 -6.9
44.811 44.810 -87.033005 -223.997 -12.232 -40.8 -242.7 -6.9
44.831 44.830 -86.701996 -223.53 -10.877 -40.8 -242.7 -6.9
44.851 44.850 -86.145004 -222.521 -7.762 -40.8 -242.7 -6.9
44.871 44.870 -84.994 -220.788 -6.2460003 -40.8 -242.7 -6.9
44.892 44.890 -83.798004 -218.358 -0.35699987 -40.8 -242.7 -6.9
44.911 44.910 -82.687 -216.97499 0.6739998 -40.8 -242.7 -6.9
44.931 44.930 -81.33099 -216.108 2.348 -40.8 -242.7 -6.9
44.951 44.950 -80.947 -215.146 2.4380002 -40.8 -242.7 -6.9
44.971 44.970 -79.862 -214.405 3.8729997 -40.8 -242.7 -6.9
44.991 44.990 -78.991 -213.185 4.405 -40.8 -242.7 -6.9
45.011 45.010 -78.669 -212.136 5.1740003 -40.8 -242.7 -6.9
45.031 45.030 -77.317 -211.595 6.827 -40.8 -242.7 -6.9
45.051 45.050 -77.468994 -210.997 4.869 -40.8 -242.7 -6.9
45.073 45.070 -76.874 -210.44699 4.6559997 -40.8 -242.7 -6.9
45.091 45.090 -74.716 -208.962 5.643 -40.8 -242.7 -6.9
45.111 45.110 -73.074 -207.96399 6.336 -40.8 -242.7 -6.9
45.131 45.130 -71.687 -206.625 7.0209994 -40.8 -242.7 -6.9
45.152 45.150 -70.074 -205.45901 6.974001 -42.1 -240.1 -9.4
45.171 45.170 -69.465 -204.438 7.059 -42.1 -240.1 -9.4
45.191 45.190 -68.624 -204.085 7.7280006 -42.1 -240.1 -9.4
45.211 45.210 -66.909 -203.046 6.5880003 -42.1 -240.1 -9.4
45.231 45.230 -66.022 -202.82501 5.748 -41.8 -240.3 -9.2
45.251 45.250 -65.74 -201.694 6.6870003 -41.8 -240.3 -9.2
45.271 45.270 -63.265 -201.171 6.439 -41.8 -240.3 -9.2
45.291 45.290 -61.501 -199.612 3.7919998 -41.8 -240.3 -9.2
45.311 45.310 -60.147 -199.593 5.031 -41.8 -240.3 -9.2
45.331 45.330 -58.746 -199.864 4.4730005 -41.8 -240.3 -9.2
45.354 45.350 -59.524002 -199.37201 4.7940006 -41.8 -240.3 -9.2
45.371 45.370 -58.707 -198.871 5.1240005 -41.8 -240.3 -9.2
45.391 45.390 -57.851997 -198.349 4.2610006 -41.8 -240.3 -9.2
45.411 45.410 -58.148003 -198.65399 4.8459997 -42.0 -239.9 -9.7
45.431 45.430 -58.197 -198.676 6.0530005 -42.0 -239.9 -9.7
45.451 45.450 -57.654 -198.646 5.484 -42.0 -239.9 -9.7
45.471 45.470 -57.697 -199.12599 6.3860006 -42.0 -239.9 -9.7
45.491 45.490 -58.436 -198.92899 5.505 -42.0 -239.9 -9.7
45.511 45.510 -58.162003 -198.61299 5.526 -42.0 -239.9 -9.7
45.531 45.530 -58.175 -198.622 6.6759996 -42.0 -239.9 -9.7
45.551 45.550 -58.159 -198.312 6.6799994 -42.0 -239.9 -9.7
45.571 45.570 -58.136 -198.581 5.561 -42.0 -239.9 -9.7
45.591 45.590 -58.626 -198.87 5.5600004 -42.0 -239.9 -9.7
45.611 45.610 -57.883 -198.853 5.019 -42.0 -239.9 -9.7
45.631 45.630 -57.233 -198.31299 7.1610003 -42.0 -239.9 -9.7
45.654 45.650 -57.975 -198.737 6.859 -42.0 -239.9 -9.7
45.671 45.670 -57.589 -198.618 6.5950003 -42.0 -239.9 -9.7
45.691 45.690 -58.04 -198.765 6.3340006 -42.0 -239.9 -9.7
45.711 45.710 -58.267 -198.87599 5.6809998 -42.0 -239.9 -9.7
45.731 45.730 -57.981 -198.51399 5.698 -42.0 -239.9 -9.7
45.751 45.750 -58.314 -198.70898 5.7200003 -42.0 -239.9 -9.7
45.771 45.770 -58.013 -198.578 6.179 -42.0 -239.9 -9.7
45.791 45.790 -58.3 -198.79999 5.7 -42.0 -239.9 -9.7
45.811 45.810 -58.0 -198.59999 5.7 -42.0 -239.9 -9.7
45.831 45.830 -57.7 -198.5 5.7 -42.0 -239.9 -9.7
45.851 45.850 -57.4 -198.4 5.7 -42.0 -239.9 -9.7
45.871 45.870 -57.2 -198.4 5.6000004 -42.0 -239.9 -9.7
45.891 45.890 -57.1 -198.29999 5.7 -42.0 -239.9 -9.7
45.911 45.910 -57.0 -198.29999 5.8 -42.0 -239.9 -9.7
45.931 45.930 -57.0 -198.29999 5.8 -42.0 -239.9 -9.7
45.952 45.950 -56.9 -198.29999 5.9000006 -42.0 -239.9 -9.7
45.971 45.970 -56.9 -198.29999 6.0 -42.0 -239.9 -9.7
45.991 45.990 -56.8 -198.29999 6.0 -42.0 -239.9 -9.7
46.011 46.010 -56.9 -198.29999 6.1000004 -42.0 -239.9 -9.7
46.031 46.030 -56.8 -198.29999 6.1000004 -42.0 -239.9 -9.7
46.051 46.050 -56.8 -198.29999 6.1000004 -42.0 -239.9 -9.7
46.071 46.070 -56.8 -198.29999 6.1000004 -42.0 -239.9 -9.7
46.091 46.090 -56.8 -198.29999 6.1000004 -42.0 -239.9 -9.7
46.111 46.110 -56.8 -198.29999 6.1000004 -42.0 -239.9 -9.7
46.131 46.130 -56.8 -198.29999 6.1000004 -42.0 -239.9 -9.7
46.151 46.150 -56.8 -198.29999 6.1000004 -42.0 -239.9 -9.7
46.171 46.170 -56.8 -198.29999 6.1000004 -42.0 -239.9 -9.7
46.191 46.190 -56.7 -198.29999 6.2 -42.0 -239.9 -9.7
46.211 46.210 -56.8 -198.29999 6.2 -42.0 -239.9 -9.7
46.234 46.230 -56.8 -198.29999 6.2 -42.0 -239.9 -9.7
46.252 46.250 -56.8 -198.29999 6.1000004 -42.0 -239.9 -9.7
46.271 46.270 -56.9 -198.29999 6.2 -42.0 -239.9 -9.7
46.291 46.290 -56.9 -198.29999 6.1000004 -42.0 -239.9 -9.7
46.311 46.310 -56.9 -198.29999 6.2 -42.0 -239.9 -9.7
46.331 46.330 -56.9 -198.4 6.2 -42.0 -239.9 -9.7
46.351 46.350 -56.9 -198.4 6.2 -42.0 -239.9 -9.7
46.371 46.370 -56.9 -198.4 6.2 -42.0 -239.9 -9.7
46.391 46.390 -57.0 -198.4 6.2 -42.0 -239.9 -9.7
46.411 46.410 -57.0 -198.4 6.2 -42.0 -239.9 -9.7
46.431 46.430 -57.0 -198.4 6.2 -42.0 -239.9 -9.7
46.451 46.450 -57.1 -198.4 6.2 -42.0 -239.9 -9.7
46.471 46.470 -57.1 -198.4 6.3 -42.0 -239.9 -9.7
46.491 46.490 -57.2 -198.4 6.2 -42.0 -239.9 -9.7
46.511 46.510 -57.2 -198.5 6.2 -42.0 -239.9 -9.7
46.531 46.530 -57.2 -198.5 6.2 -42.0 -239.9 -9.7
46.551 46.550 -57.3 -198.5 6.2 -42.0 -239.9 -9.7
46.571 46.570 -57.3 -198.5 6.2 -42.0 -239.9 -9.7
46.591 46.590 -57.3 -198.5 6.2 -42.0 -239.9 -9.7
46.611 46.610 -57.4 -198.59999 6.1000004 -42.0 -239.9 -9.7
46.631 46.630 -57.5 -198.59999 6.1000004 -42.0 -239.9 -9.7
46.651 46.650 -57.5 -198.59999 6.0 -42.0 -239.9 -9.7
46.670 46.670 -57.6 -198.59999 5.9000006 -42.0 -239.9 -9.7
46.691 46.690 -57.6 -198.59999 5.8 -42.0 -239.9 -9.7
46.711 46.710 -57.7 -198.59999 5.7 -42.0 -239.9 -9.7
46.731 46.730 -57.8 -198.59999 5.6000004 -42.0 -239.9 -9.7
46.752 46.750 -57.8 -198.59999 5.4000006 -42.0 -239.9 -9.7
46.771 46.770 -57.8 -198.59999 5.3 -42.0 -239.9 -9.7
46.791 46.790 -57.9 -198.59999 5.1000004 -42.0 -239.9 -9.7
46.811 46.810 -57.9 -198.59999 5.0 -42.0 -239.9 -9.7
46.834 46.830 -57.9 -198.59999 4.8 -42.0 -239.9 -9.7
46.851 46.850 -57.9 -198.5 4.7 -42.0 -239.9 -9.7
46.871 46.870 -57.9 -198.5 4.4000006 -42.0 -239.9 -9.7
46.891 46.890 -57.9 -198.5 4.3 -42.0 -239.9 -9.7
46.911 46.910 -58.0 -198.5 4.1000004 -42.0 -239.9 -9.7
46.933 46.930 -58.0 -198.5 4.0 -42.0 -239.9 -9.7
46.951 46.950 -58.0 -198.4 3.8000002 -42.0 -239.9 -9.7
46.971 46.970 -58.1 -198.4 3.6000004 -42.0 -239.9 -9.7
46.991 46.990 -58.1 -198.4 3.5 -42.0 -239.9 -9.7
47.012 47.010 -58.1 -198.4 3.1999998 -42.0 -239.9 -9.7
47.031 47.030 -58.1 -198.4 3.0 -42.0 -239.9 -9.7
47.051 47.050 -58.2 -198.4 2.8000002 -42.0 -239.9 -9.7
47.071 47.070 -58.2 -198.29999 2.6999998 -42.0 -239.9 -9.7
47.091 47.090 -58.2 -198.29999 2.5 -42.0 -239.9 -9.7
47.111 47.110 -58.3 -198.29999 2.4000006 -42.0 -239.9 -9.7
47.131 47.130 -58.3 -198.29999 2.1999998 -42.0 -239.9 -9.7
47.151 47.150 -58.3 -198.2 2.0 -42.0 -239.9 -9.7
47.171 47.170 -58.3 -198.2 1.8000002 -42.0 -239.9 -9.7
47.191 47.190 -58.3 -198.2 1.6000004 -42.0 -239.9 -9.7
47.212 47.210 -58.4 -198.2 1.5 -42.0 -239.9 -9.7
47.233 47.230 -58.3 -198.2 1.3000002 -42.0 -239.9 -9.7
47.251 47.250 -58.4 -198.2 1.3000002 -42.0 -239.9 -9.7
47.271 47.270 -58.4 -198.2 1.1999998 -42.0 -239.9 -9.7
47.291 47.290 -58.4 -198.09999 1.1000004 -42.0 -239.9 -9.7
47.311 47.310 -58.4 -198.09999 1.0 -42.0 -239.9 -9.7
47.331 47.330 -58.3 -198.09999 0.9000006 -42.0 -239.9 -9.7
47.351 47.350 -58.3 -198.09999 0.8000002 -42.0 -239.9 -9.7
47.371 47.370 -58.4 -198.0 0.6999998 -42.0 -239.9 -9.7
47.391 47.390 -58.4 -198.09999 0.6999998 -42.0 -239.9 -9.7
47.411 47.410 -58.4 -198.09999 0.6000004 -42.0 -239.9 -9.7
47.431 47.430 -58.4 -198.0 0.6000004 -42.0 -239.9 -9.7
47.451 47.450 -58.5 -198.0 0.6000004 -42.0 -239.9 -9.7
47.471 47.470 -58.5 -198.09999 0.5 -42.0 -239.9 -9.7
47.491 47.490 -58.5 -198.0 0.5 -42.0 -239.9 -9.7
47.514 47.510 -58.5 -198.0 0.40000057 -42.0 -239.9 -9.7
47.531 47.530 -58.5 -198.0 0.40000057 -42.0 -239.9 -9.7
47.551 47.550 -58.5 -198.0 0.40000057 -42.0 -239.9 -9.7
47.571 47.570 -58.5 -198.0 0.40000057 -42.0 -239.9 -9.7
47.591 47.590 -58.5 -198.0 0.40000057 -42.0 -239.9 -9.7
47.611 47.610 -58.5 -198.0 0.40000057 -42.0 -239.9 -9.7
47.631 47.630 -58.5 -198.0 0.40000057 -42.0 -239.9 -9.7
47.651 47.650 -58.5 -197.9 0.3000002 -42.0 -239.9 -9.7
47.671 47.670 -58.5 -198.0 0.3000002 -42.0 -239.9 -9.7
47.691 47.690 -58.5 -198.0 0.3000002 -42.0 -239.9 -9.7
47.711 47.710 -58.5 -197.9 0.19999981 -42.0 -239.9 -9.7
47.731 47.730 -58.5 -198.0 0.10000038 -42.0 -239.9 -9.7
47.751 47.750 -58.5 -198.0 0.10000038 -42.0 -239.9 -9.7
47.771 47.770 -58.5 -198.0 0.10000038 -42.0 -239.9 -9.7
47.791 47.790 -58.5 -197.9 0.10000038 -42.0 -239.9 -9.7
47.813 47.810 -58.5 -197.9 0.10000038 -42.0 -239.9 -9.7
47.831 47.830 -58.5 -197.9 0.10000038 -42.0 -239.9 -9.7
47.851 47.850 -58.5 -197.9 0.0 -42.0 -239.9 -9.7
47.871 47.870 -58.5 -197.9 0.0 -42.0 -239.9 -9.7
47.891 47.890 -58.5 -197.9 0.0 -42.0 -239.9 -9.7
47.911 47.910 -58.5 -197.9 0.10000038 -42.0 -239.9 -9.7
47.931 47.930 -58.5 -197.9 0.10000038 -42.0 -239.9 -9.7
47.951 47.950 -58.5 -197.9 0.10000038 -42.0 -239.9 -9.7
47.971 47.970 -58.6 -198.0 0.10000038 -42.0 -239.9 -9.7
47.991 47.990 -58.6 -198.0 0.10000038 -42.0 -239.9 -9.7
48.011 48.010 -58.6 -198.0 0.0 -42.0 -239.9 -9.7
48.031 48.030 -58.7 -198.0 0.0 -42.0 -239.9 -9.7
48.051 48.050 -58.7 -198.0 -0.09999943 -42.0 -239.9 -9.7
48.071 48.070 -58.7 -197.9 -0.09999943 -42.0 -239.9 -9.7
48.091 48.090 -58.7 -198.0 -0.09999943 -42.0 -239.9 -9.7
48.113 48.110 -58.8 -198.0 -0.09999943 -42.0 -239.9 -9.7
48.131 48.130 -58.8 -198.0 -0.19999981 -42.0 -239.9 -9.7
48.151 48.150 -58.8 -198.0 -0.19999981 -42.0 -239.9 -9.7
48.172 48.170 -58.9 -198.0 -0.19999981 -42.0 -239.9 -9.7
48.192 48.190 -58.9 -198.0 -0.19999981 -42.0 -239.9 -9.7
48.211 48.210 -58.9 -198.0 -0.3000002 -42.0 -239.9 -9.7
48.232 48.230 -58.9 -198.0 -0.3000002 -42.0 -239.9 -9.7
48.252 48.250 -58.9 -198.0 -0.39999962 -42.0 -239.9 -9.7
48.271 48.270 -58.9 -198.0 -0.39999962 -42.0 -239.9 -9.7
48.291 48.290 -59.0 -198.0 -0.39999962 -42.0 -239.9 -9.7
48.311 48.310 -59.0 -198.0 -0.39999962 -42.0 -239.9 -9.7
48.332 48.330 -59.0 -198.0 -0.39999962 -42.0 -239.9 -9.7
48.351 48.350 -59.1 -198.0 -0.39999962 -42.0 -239.9 -9.7
48.371 48.370 -59.1 -198.0 -0.39999962 -42.0 -239.9 -9.7
48.391 48.390 -59.2 -198.0 -0.39999962 -42.0 -239.9 -9.7
48.411 48.410 -59.2 -198.0 -0.39999962 -42.0 -239.9 -9.7
48.431 48.430 -59.2 -198.0 -0.39999962 -42.0 -239.9 -9.7
48.451 48.450 -59.3 -198.0 -0.39999962 -42.0 -239.9 -9.7
48.471 48.470 -59.3 -198.0 -0.39999962 -42.0 -239.9 -9.7
48.491 48.490 -59.3 -197.9 -0.39999962 -42.0 -239.9 -9.7
48.511 48.510 -59.3 -198.0 -0.39999962 -42.0 -239.9 -9.7
48.531 48.530 -59.4 -198.0 -0.39999962 -42.0 -239.9 -9.7
48.551 48.550 -59.4 -198.0 -0.39999962 -42.0 -239.9 -9.7
48.571 48.570 -59.4 -198.0 -0.39999962 -42.0 -239.9 -9.7
48.591 48.590 -59.3 -197.9 -0.5 -42.0 -239.9 -9.7
48.611 48.610 -59.4 -197.9 -0.5 -42.0 -239.9 -9.7
48.631 48.630 -59.4 -197.9 -0.39999962 -42.0 -239.9 -9.7
48.651 48.650 -59.5 -198.0 -0.5 -42.0 -239.9 -9.7
48.671 48.670 -59.5 -198.0 -0.5 -42.0 -239.9 -9.7
48.691 48.690 -59.6 -198.0 -0.5 -42.0 -239.9 -9.7
48.711 48.710 -59.6 -198.0 -0.5999994 -42.0 -239.9 -9.7
48.731 48.730 -59.6 -197.9 -0.5999994 -42.0 -239.9 -9.7
48.751 48.750 -59.6 -198.0 -0.5999994 -42.0 -239.9 -9.7
48.771 48.770 -59.7 -198.0 -0.6999998 -42.0 -239.9 -9.7
48.791 48.790 -59.7 -198.0 -0.6999998 -42.0 -239.9 -9.7
48.811 48.810 -59.8 -198.09999 -0.8000002 -42.0 -239.9 -9.7
48.831 48.830 -59.8 -198.09999 -0.8000002 -42.0 -239.9 -9.7
48.851 48.850 -59.9 -198.09999 -0.8999996 -42.0 -239.9 -9.7
48.872 48.871 -60.0 -198.09999 -0.8999996 -42.0 -239.9 -9.7
48.891 48.890 -60.0 -198.09999 -1.0 -42.0 -239.9 -9.7
48.911 48.910 -60.1 -198.09999 -1.0999994 -42.0 -239.9 -9.7
48.931 48.930 -60.2 -198.2 -1.1999998 -42.0 -239.9 -9.7
48.951 48.950 -60.3 -198.2 -1.3999996 -42.0 -239.9 -9.7
48.971 48.970 -54.800003 -193.6 -9.9 -36.2 -235.1 -18.3
48.993 48.990 -57.674004 -195.375 -9.8289995 -36.2 -235.1 -18.3
49.011 49.010 -59.757 -196.718 -10.447999 -36.2 -235.1 -18.3
49.031 49.030 -61.193 -197.822 -11.103999 -36.2 -235.1 -18.3
49.051 49.050 -64.343994 -200.467 -9.455 -42.6 -240.9 -10.0
49.071 49.070 -65.19 -201.202 -11.688 -42.6 -240.9 -10.0
49.091 49.090 -65.410995 -202.551 -14.5 -42.6 -240.9 -10.0
49.111 49.110 -65.993 -203.193 -17.935 -42.6 -240.9 -10.0
49.131 49.130 -65.878 -204.026 -20.609001 -42.6 -240.9 -10.0
49.151 49.150 -65.429 -206.773 -25.248001 -42.6 -240.9 -10.0
49.171 49.170 -65.68 -209.204 -29.704 -42.6 -240.9 -10.0
49.191 49.190 -64.887 -210.44 -32.309998 -42.6 -240.9 -10.0
49.211 49.210 -64.899 -213.722 -34.534 -42.6 -240.9 -10.0
49.232 49.230 -64.578995 -215.41699 -37.878 -42.6 -240.9 -10.0
49.251 49.250 -63.389 -217.8 -39.577 -40.6 -245.2 -7.8
49.271 49.270 -62.544 -220.425 -42.265 -40.6 -245.2 -7.8
49.291 49.290 -61.427 -223.567 -44.616 -40.6 -245.2 -7.8
49.311 49.310 -61.406 -226.077 -46.325 -40.6 -245.2 -7.8
49.331 49.330 -58.081 -227.756 -47.672 -40.6 -245.2 -7.8
49.351 49.350 -56.406 -231.573 -49.329 -40.6 -245.2 -7.8
49.374 49.370 -54.959 -233.243 -51.286 -40.6 -245.2 -7.8
49.391 49.390 -53.924004 -234.483 -51.372 -29.7 -236.8 -7.7
49.411 49.410 -53.116 -237.196 -52.071 -29.7 -236.8 -7.7
49.431 49.430 -52.313004 -237.42801 -51.185 -29.7 -236.8 -7.7
49.451 49.450 -50.032 -239.25 -53.402 -29.7 -236.8 -7.7
49.471 49.470 -49.006996 -239.83899 -53.125 -34.371 -240.4 -7.742
49.491 49.490 -49.279 -240.693 -53.473 -34.371 -240.4 -7.742
49.511 49.510 -47.886997 -240.213 -53.175 -34.371 -240.4 -7.742
49.531 49.530 -47.313 -241.21599 -53.818 -34.371 -240.4 -7.742
49.551 49.550 -46.197998 -241.724 -54.144 -34.371 -240.4 -7.742
49.574 49.570 -46.204998 -242.23 -53.845 -34.371 -240.4 -7.742
49.591 49.590 -46.441 -242.86 -53.24 -29.7 -236.8 -7.7
49.611 49.610 -45.973 -242.258 -52.624 -34.371 -240.4 -7.742
49.631 49.630 -46.486 -242.38399 -54.192 -34.371 -240.4 -7.742
49.652 49.650 -45.111 -242.706 -54.192 -34.371 -240.4 -7.742
49.674 49.670 -45.716 -242.573 -52.656002 -34.371 -240.4 -7.742
49.691 49.690 -45.134 -242.694 -54.204002 -34.371 -240.4 -7.742
49.711 49.710 -44.593998 -242.355 -54.197002 -34.371 -240.4 -7.742
49.731 49.730 -44.916 -242.198 -53.295002 -34.371 -240.4 -7.742
49.751 49.750 -44.655 -242.185 -53.293 -34.371 -240.4 -7.742
49.771 49.770 -43.588997 -241.53299 -53.304 -34.371 -240.4 -7.742
49.791 49.790 -43.626 -241.85399 -53.315002 -34.371 -240.4 -7.742
49.811 49.810 -44.232998 -242.65999 -52.449 -34.371 -240.4 -7.742
49.831 49.830 -43.450996 -242.155 -53.339 -34.371 -240.4 -7.742
49.851 49.850 -43.774 -242.611 -53.634 -34.371 -240.4 -7.742
49.871 49.870 -43.108997 -242.741 -53.915 -34.371 -240.4 -7.742
49.893 49.890 -43.458 -242.874 -54.184002 -34.371 -240.4 -7.742
49.911 49.910 -44.091 -243.288 -53.41 -34.371 -240.4 -7.742
49.931 49.930 -43.837997 -243.256 -53.435 -34.371 -240.4 -7.742
49.950 49.950 -44.628998 -243.64 -53.254 -34.371 -240.4 -7.742
49.970 49.970 -44.813 -243.65599 -52.904 -34.371 -240.4 -7.742
49.991 49.990 -44.450996 -243.28299 -53.808002 -34.371 -240.4 -7.742
50.011 50.010 -44.468 -243.26099 -54.131 -34.371 -240.4 -7.742
50.031 50.030 -44.872997 -242.96399 -53.646 -34.371 -240.4 -7.742
50.051 50.050 -44.571 -243.0 -53.642002 -34.371 -240.4 -7.742
50.071 50.070 -44.371 -243.09999 -53.642002 -34.371 -240.4 -7.742
50.091 50.090 -44.170998 -243.2 -53.642002 -34.371 -240.4 -7.742
50.112 50.110 -43.971 -243.4 -53.642002 -34.371 -240.4 -7.742
50.131 50.130 -43.871 -243.5 -53.642002 -34.371 -240.4 -7.742
50.151 50.150 -43.770996 -243.59999 -53.642002 -34.371 -240.4 -7.742
50.171 50.170 -43.670998 -243.7 -53.642002 -34.371 -240.4 -7.742
50.191 50.190 -43.270996 -243.59999 -53.642002 -34.371 -240.4 -7.742
50.211 50.210 -43.170998 -243.79999 -53.642002 -34.371 -240.4 -7.742
50.231 50.230 -43.071 -243.9 -53.642002 -34.371 -240.4 -7.742
50.254 50.250 -42.971 -243.9 -53.642002 -34.371 -240.4 -7.742
50.272 50.270 -42.871 -244.0 -53.742 -34.371 -240.4 -7.742
50.291 50.290 -42.770996 -244.09999 -53.642002 -34.371 -240.4 -7.742
50.311 50.310 -42.770996 -244.2 -53.642002 -34.371 -240.4 -7.742
50.331 50.330 -42.670998 -244.29999 -53.642002 -34.371 -240.4 -7.742
50.351 50.350 -42.571 -244.4 -53.642002 -34.371 -240.4 -7.742
50.371 50.370 -42.571 -244.5 -53.542 -34.371 -240.4 -7.742
50.391 50.390 -42.471 -244.59999 -53.542 -34.371 -240.4 -7.742
50.411 50.410 -42.471 -244.7 -53.542 -34.371 -240.4 -7.742
50.431 50.430 -42.471 -244.9 -53.642002 -34.371 -240.4 -7.742
50.451 50.450 -42.371 -244.9 -53.542 -34.371 -240.4 -7.742
50.471 50.470 -42.371 -245.0 -53.542 -34.371 -240.4 -7.742
50.492 50.490 -42.371 -245.09999 -53.542 -34.371 -240.4 -7.742
50.511 50.510 -42.271 -245.2 -53.542 -34.371 -240.4 -7.742
50.531 50.530 -42.271 -245.29999 -53.542 -34.371 -240.4 -7.742
50.552 50.550 -42.170998 -245.29999 -53.642002 -34.371 -240.4 -7.742
50.571 50.570 -42.170998 -245.4 -53.642002 -34.371 -240.4 -7.742
50.591 50.590 -42.170998 -245.5 -53.542 -34.371 -240.4 -7.742
50.611 50.610 -42.071 -245.5 -53.542 -34.371 -240.4 -7.742
50.631 50.630 -42.071 -245.59999 -53.442 -34.371 -240.4 -7.742
50.652 50.650 -41.970997 -245.59999 -53.442 -34.371 -240.4 -7.742
50.671 50.670 -41.970997 -245.7 -53.342 -34.371 -240.4 -7.742
50.691 50.690 -41.871 -245.7 -53.442 -34.371 -240.4 -7.742
50.711 50.710 -41.871 -245.7 -53.442 -34.371 -240.4 -7.742
50.731 50.730 -41.771 -245.79999 -53.342 -34.371 -240.4 -7.742
50.751 50.750 -41.771 -245.79999 -53.342 -34.371 -240.4 -7.742
50.771 50.770 -41.670998 -245.79999 -53.342 -34.371 -240.4 -7.742
50.791 50.790 -41.670998 -245.9 -53.242 -34.371 -240.4 -7.742
50.811 50.810 -41.670998 -245.9 -53.242 -34.371 -240.4 -7.742
50.831 50.830 -41.670998 -245.9 -53.242 -34.371 -240.4 -7.742
50.851 50.850 -41.571 -245.9 -53.242 -34.371 -240.4 -7.742
50.871 50.870 -41.571 -246.0 -53.242 -34.371 -240.4 -7.742
50.891 50.890 -41.470997 -246.0 -53.142002 -34.371 -240.4 -7.742
50.911 50.910 -41.470997 -246.0 -53.142002 -34.371 -240.4 -7.742
50.931 50.931 -41.371 -246.0 -53.242 -34.371 -240.4 -7.742
50.951 50.950 -41.371 -246.0 -53.242 -34.371 -240.4 -7.742
50.971 50.970 -41.271 -246.0 -53.242 -34.371 -240.4 -7.742
50.990 50.990 -41.271 -246.09999 -53.242 -34.371 -240.4 -7.742
51.010 51.010 -41.170998 -246.09999 -53.342 -34.371 -240.4 -7.742
51.030 51.030 -41.071 -246.09999 -53.242 -34.371 -240.4 -7.742
51.051 51.050 -41.071 -246.09999 -53.242 -34.371 -240.4 -7.742
51.071 51.070 -40.970997 -246.2 -53.242 -34.371 -240.4 -7.742
51.091 51.090 -40.970997 -246.2 -53.242 -34.371 -240.4 -7.742
51.111 51.110 -40.970997 -246.2 -53.242 -34.371 -240.4 -7.742
51.131 51.130 -40.871 -246.2 -53.242 -34.371 -240.4 -7.742
51.152 51.150 -40.871 -246.2 -53.242 -34.371 -240.4 -7.742
51.171 51.170 -40.771 -246.2 -53.242 -34.371 -240.4 -7.742
51.191 51.190 -40.771 -246.2 -53.242 -34.371 -240.4 -7.742
51.211 51.210 -40.670998 -246.2 -53.342 -34.371 -240.4 -7.742
51.234 51.230 -40.670998 -246.29999 -53.342 -34.371 -240.4 -7.742
51.251 51.250 -40.670998 -246.29999 -53.442 -34.371 -240.4 -7.742
51.271 51.270 -40.670998 -246.29999 -53.442 -34.371 -240.4 -7.742
51.292 51.290 -40.571 -246.4 -53.342 -34.371 -240.4 -7.742
51.311 51.310 -40.571 -246.4 -53.342 -34.371 -240.4 -7.742
51.331 51.330 -40.571 -246.4 -53.442 -34.371 -240.4 -7.742
51.351 51.350 -40.571 -246.4 -53.442 -34.371 -240.4 -7.742
51.371 51.370 -40.470997 -246.5 -53.442 -34.371 -240.4 -7.742
51.391 51.390 -40.470997 -246.5 -53.542 -34.371 -240.4 -7.742
51.411 51.410 -40.371 -246.5 -53.542 -34.371 -240.4 -7.742
51.431 51.430 -40.271 -246.5 -53.542 -34.371 -240.4 -7.742
51.451 51.450 -40.271 -246.59999 -53.542 -34.371 -240.4 -7.742
51.471 51.470 -40.271 -246.59999 -53.542 -34.371 -240.4 -7.742
51.491 51.490 -40.170998 -246.59999 -53.642002 -34.371 -240.4 -7.742
51.511 51.510 -40.170998 -246.7 -53.542 -34.371 -240.4 -7.742
51.534 51.530 -40.170998 -246.7 -53.542 -34.371 -240.4 -7.742
51.551 51.550 -40.170998 -246.7 -53.542 -34.371 -240.4 -7.742
51.572 51.570 -40.170998 -246.79999 -53.542 -34.371 -240.4 -7.742
51.591 51.590 -40.071 -246.79999 -53.542 -34.371 -240.4 -7.742
51.611 51.610 -40.071 -246.79999 -53.542 -34.371 -240.4 -7.742
51.631 51.630 -40.071 -246.79999 -53.542 -34.371 -240.4 -7.742
51.651 51.650 -40.071 -246.9 -53.542 -34.371 -240.4 -7.742
51.671 51.670 -39.970997 -246.9 -53.542 -34.371 -240.4 -7.742
51.691 51.690 -39.970997 -247.0 -53.642002 -34.371 -240.4 -7.742
51.711 51.710 -39.871 -247.0 -53.542 -34.371 -240.4 -7.742
51.731 51.730 -39.871 -247.0 -53.542 -34.371 -240.4 -7.742
51.751 51.750 -39.871 -247.0 -53.542 -34.371 -240.4 -7.742
51.771 51.770 -39.871 -247.0 -53.542 -34.371 -240.4 -7.742
51.791 51.790 -39.771 -247.09999 -53.642002 -34.371 -240.4 -7.742
51.811 51.810 -39.871 -247.09999 -53.542 -34.371 -240.4 -7.742
51.832 51.830 -39.871 -247.09999 -53.642002 -34.371 -240.4 -7.742
51.851 51.850 -39.871 -247.2 -53.542 -34.371 -240.4 -7.742
51.871 51.870 -39.871 -247.2 -53.542 -34.371 -240.4 -7.742
51.891 51.890 -39.871 -247.2 -53.642002 -34.371 -240.4 -7.742
51.911 51.910 -39.771 -247.2 -53.642002 -34.371 -240.4 -7.742
51.931 51.930 -39.771 -247.2 -53.642002 -34.371 -240.4 -7.742
51.951 51.950 -39.771 -247.2 -53.642002 -34.371 -240.4 -7.742
51.972 51.970 -39.670998 -247.2 -53.542 -34.371 -240.4 -7.742
51.991 51.990 -39.670998 -247.29999 -53.542 -34.371 -240.4 -7.742
52.011 52.010 -39.670998 -247.29999 -53.542 -34.371 -240.4 -7.742
52.031 52.030 -39.670998 -247.29999 -53.542 -34.371 -240.4 -7.742
52.051 52.050 -39.670998 -247.29999 -53.542 -34.371 -240.4 -7.742
52.071 52.070 -39.670998 -247.29999 -53.442 -34.371 -240.4 -7.742
52.091 52.090 -39.670998 -247.4 -53.442 -34.371 -240.4 -7.742
52.111 52.110 -39.571 -247.4 -53.542 -34.371 -240.4 -7.742
52.131 52.130 -39.571 -247.4 -53.542 -34.371 -240.4 -7.742
52.151 52.150 -39.571 -247.4 -53.542 -34.371 -240.4 -7.742
52.171 52.170 -39.571 -247.4 -53.542 -34.371 -240.4 -7.742
52.191 52.190 -39.470997 -247.5 -53.542 -34.371 -240.4 -7.742
52.211 52.210 -39.470997 -247.5 -53.542 -34.371 -240.4 -7.742
52.231 52.230 -39.470997 -247.5 -53.542 -34.371 -240.4 -7.742
52.252 52.250 -39.470997 -247.5 -53.542 -34.371 -240.4 -7.742
52.271 52.270 -39.470997 -247.5 -53.542 -34.371 -240.4 -7.742
52.291 52.290 -39.470997 -247.5 -53.542 -34.371 -240.4 -7.742
52.311 52.310 -39.371 -247.59999 -53.442 -34.371 -240.4 -7.742
52.331 52.330 -39.371 -247.59999 -53.442 -34.371 -240.4 -7.742
52.351 52.350 -39.371 -247.7 -53.442 -34.371 -240.4 -7.742
52.371 52.370 -39.371 -247.79999 -53.442 -34.371 -240.4 -7.742
52.391 52.390 -39.371 -247.79999 -53.342 -34.371 -240.4 -7.742
52.414 52.410 -39.371 -247.79999 -53.342 -34.371 -240.4 -7.742
52.431 52.430 -39.371 -247.9 -53.342 -34.371 -240.4 -7.742
52.451 52.450 -39.371 -247.9 -53.342 -34.371 -240.4 -7.742
52.471 52.470 -39.271 -247.9 -53.342 -34.371 -240.4 -7.742
52.491 52.490 -39.271 -248.0 -53.342 -34.371 -240.4 -7.742
52.511 52.510 -39.271 -248.09999 -53.242 -34.371 -240.4 -7.742
52.531 52.530 -39.271 -248.09999 -53.242 -34.371 -240.4 -7.742
52.551 52.550 -39.271 -248.2 -53.242 -34.371 -240.4 -7.742
52.571 52.570 -39.271 -248.2 -53.242 -34.371 -240.4 -7.742
52.591 52.590 -39.271 -248.29999 -53.242 -34.371 -240.4 -7.742
52.611 52.610 -39.271 -248.29999 -53.242 -34.371 -240.4 -7.742
52.631 52.630 -39.271 -248.29999 -53.142002 -34.371 -240.4 -7.742
52.651 52.650 -39.271 -248.4 -53.142002 -34.371 -240.4 -7.742
52.671 52.670 -39.271 -248.5 -53.142002 -34.371 -240.4 -7.742
52.691 52.690 -39.271 -248.5 -53.142002 -34.371 -240.4 -7.742
52.713 52.710 -39.371 -248.59999 -53.142002 -34.371 -240.4 -7.742
52.731 52.730 -39.371 -248.59999 -53.142002 -34.371 -240.4 -7.742
52.751 52.750 -39.371 -248.7 -53.142002 -34.371 -240.4 -7.742
52.771 52.770 -39.371 -248.79999 -53.142002 -34.371 -240.4 -7.742
52.791 52.790 -39.470997 -248.79999 -53.142002 -34.371 -240.4 -7.742
52.811 52.810 -39.470997 -248.9 -53.142002 -34.371 -240.4 -7.742
52.831 52.830 -39.571 -249.0 -53.142002 -34.371 -240.4 -7.742
52.851 52.850 -39.571 -249.0 -53.142002 -34.371 -240.4 -7.742
52.871 52.870 -39.571 -249.09999 -53.242 -34.371 -240.4 -7.742
52.891 52.890 -39.571 -249.09999 -53.242 -34.371 -240.4 -7.742
52.912 52.910 -39.670998 -249.2 -53.142002 -34.371 -240.4 -7.742
52.931 52.930 -39.670998 -249.2 -53.142002 -34.371 -240.4 -7.742
52.951 52.950 -39.670998 -249.2 -53.242 -34.371 -240.4 -7.742
52.971 52.970 -39.670998 -249.29999 -53.242 -34.371 -240.4 -7.742
52.991 52.990 -39.771 -249.29999 -53.242 -34.371 -240.4 -7.742
53.013 53.010 -39.670998 -249.29999 -53.242 -34.371 -240.4 -7.742
53.031 53.030 -39.771 -249.29999 -53.242 -34.371 -240.4 -7.742
53.051 53.050 -39.871 -249.4 -53.142002 -34.371 -240.4 -7.742
53.071 53.070 -39.871 -249.5 -53.242 -34.371 -240.4 -7.742
53.091 53.090 -39.970997 -249.5 -53.242 -34.371 -240.4 -7.742
53.111 53.110 -40.071 -249.59999 -53.242 -34.371 -240.4 -7.742
53.131 53.130 -40.071 -249.59999 -53.142002 -34.371 -240.4 -7.742
53.151 53.150 -40.170998 -249.7 -53.142002 -34.371 -240.4 -7.742
53.171 53.170 -40.170998 -249.7 -53.142002 -34.371 -240.4 -7.742
53.191 53.190 -40.271 -249.79999 -53.142002 -34.371 -240.4 -7.742
53.211 53.210 -40.371 -249.9 -53.142002 -34.371 -240.4 -7.742
53.231 53.230 -40.371 -250.0 -53.142002 -34.371 -240.4 -7.742
53.251 53.250 -40.571 -250.09999 -53.142002 -34.371 -240.4 -7.742
53.271 53.270 -48.199997 -250.3 -53.9 -42.1 -240.5 -8.5
53.291 53.290 -48.1 -250.4 -53.8 -42.1 -240.5 -8.5
53.312 53.310 -48.1 -250.5 -53.8 -42.1 -240.5 -8.5
53.331 53.330 -48.0 -250.5 -53.7 -42.1 -240.5 -8.5
53.351 53.350 -48.1 -250.6 -53.5 -42.1 -240.5 -8.5
53.372 53.370 -48.199997 -250.8 -53.4 -42.1 -240.5 -8.5
53.392 53.390 -48.399998 -250.9 -53.3 -42.1 -240.5 -8.5
53.411 53.410 -48.699997 -250.9 -53.2 -42.1 -240.5 -8.5
53.431 53.430 -48.899998 -251.0 -53.1 -42.1 -240.5 -8.5
53.451 53.450 -52.841 -251.096 -52.087997 -44.6 -240.2 -8.3
53.471 53.470 -54.296997 -251.50099 -51.571 -44.6 -240.2 -8.3
53.491 53.490 -56.182 -251.40599 -50.131 -44.6 -240.2 -8.3
53.511 53.510 -59.105 -251.58899 -49.038 -44.6 -240.2 -8.3
53.531 53.530 -61.183 -250.93399 -48.294 -44.6 -240.2 -8.3
53.551 53.550 -62.892 -250.43199 -47.88 -44.6 -240.2 -8.3
53.571 53.570 -65.029 -249.39 -46.089 -44.6 -240.2 -8.3
53.594 53.590 -68.162 -247.209 -44.406998 -44.6 -240.2 -8.3
53.611 53.610 -70.434 -246.36 -41.07 -44.6 -240.2 -8.3
53.631 53.630 -72.979 -245.75299 -40.996998 -44.6 -240.2 -8.3
53.651 53.650 -73.72 -244.12999 -39.039 -44.6 -240.2 -8.3
53.671 53.670 -74.815994 -243.418 -38.261 -44.6 -240.2 -8.3
53.692 53.690 -76.722 -242.573 -36.038002 -44.6 -240.2 -8.3
53.711 53.710 -76.869995 -240.886 -37.074 -44.6 -240.2 -8.3
53.731 53.730 -78.679 -239.87599 -35.785 -44.6 -240.2 -8.3
53.751 53.750 -78.589 -238.563 -33.893 -44.6 -240.2 -8.3
53.771 53.770 -79.826996 -237.887 -32.598 -44.6 -240.2 -8.3
53.791 53.790 -78.839 -234.479 -30.341 -43.6 -240.5 -7.2
53.811 53.810 -79.668 -233.396 -32.088 -43.6 -240.5 -7.2
53.831 53.830 -79.736 -233.023 -32.041 -43.6 -240.5 -7.2
53.851 53.850 -78.772 -231.566 -29.241001 -43.6 -240.5 -7.2
53.871 53.870 -78.436005 -230.42499 -30.056 -42.0 -241.9 -5.4
53.892 53.890 -78.770004 -230.08899 -29.424 -42.0 -241.9 -5.4
53.911 53.910 -78.006 -228.78299 -28.181 -42.0 -241.9 -5.4
53.931 53.930 -78.253 -227.754 -29.984999 -42.0 -241.9 -5.4
53.951 53.950 -77.735 -226.762 -29.352 -42.0 -241.9 -5.4
53.971 53.970 -77.811005 -225.449 -28.147 -42.457 -241.5 -5.914
53.990 53.990 -77.83 -224.797 -28.13 -42.457 -241.5 -5.914
54.010 54.010 -78.138 -224.467 -27.508999 -42.457 -241.5 -5.914
54.031 54.030 -77.073 -223.325 -27.173 -42.457 -241.5 -5.914
54.051 54.050 -77.687 -223.04199 -25.362 -42.457 -241.5 -5.914
54.071 54.070 -77.914 -223.963 -27.76 -42.457 -241.5 -5.914
54.091 54.090 -76.635 -222.737 -25.949 -42.457 -241.5 -5.914
54.111 54.110 -77.416 -222.25 -26.851 -42.457 -241.5 -5.914
54.131 54.130 -77.179 -223.048 -27.133999 -42.457 -241.5 -5.914
54.151 54.150 -76.191 -222.54 -24.744999 -42.0 -241.9 -5.4
54.171 54.170 -77.212006 -222.51 -27.112999 -42.457 -241.5 -5.914
54.191 54.190 -78.573 -223.332 -25.692999 -42.457 -241.5 -5.914
54.211 54.210 -76.807 -222.268 -25.958 -42.457 -241.5 -5.914
54.231 54.230 -77.559006 -222.588 -26.527 -42.457 -241.5 -5.914
54.251 54.250 -77.624 -222.497 -25.166 -42.457 -241.5 -5.914
54.271 54.270 -77.148 -222.07 -25.973999 -42.457 -241.5 -5.914
54.291 54.290 -77.403 -222.39 -26.008999 -42.457 -241.5 -5.914
54.311 54.310 -77.654 -222.69 -26.504 -42.457 -241.5 -5.914
54.331 54.330 -77.723 -222.544 -24.666 -42.457 -241.5 -5.914
54.352 54.350 -77.755005 -222.948 -24.595 -42.457 -241.5 -5.914
54.371 54.370 -77.841995 -222.78 -26.687 -42.457 -241.5 -5.914
54.391 54.390 -77.728 -223.006 -26.001999 -42.457 -241.5 -5.914
54.411 54.410 -77.596 -223.04199 -25.873 -42.457 -241.5 -5.914
54.432 54.430 -77.727005 -223.007 -26.144 -42.457 -241.5 -5.914
54.451 54.450 -77.657 -223.0 -26.414 -42.457 -241.5 -5.914
54.471 54.470 -77.557 -222.7 -26.314 -42.457 -241.5 -5.914
54.491 54.490 -77.557 -222.5 -26.114 -42.457 -241.5 -5.914
54.511 54.510 -77.457 -222.3 -26.014 -42.457 -241.5 -5.914
54.531 54.530 -77.457 -222.1 -25.814 -42.457 -241.5 -5.914
54.551 54.550 -77.357 -221.9 -25.713999 -42.457 -241.5 -5.914
54.574 54.570 -77.357 -221.8 -25.713999 -42.457 -241.5 -5.914
54.591 54.590 -77.257 -221.7 -25.614 -42.457 -241.5 -5.914
54.611 54.610 -77.157 -221.6 -25.614 -42.457 -241.5 -5.914
54.631 54.630 -77.257 -221.6 -25.514 -42.457 -241.5 -5.914
54.651 54.650 -77.157 -221.5 -25.614 -42.457 -241.5 -5.914
54.671 54.670 -77.157 -221.5 -25.514 -42.457 -241.5 -5.914
54.691 54.690 -77.157 -221.4 -25.414 -42.457 -241.5 -5.914
54.711 54.710 -77.157 -221.4 -25.414 -42.457 -241.5 -5.914
54.731 54.730 -77.057 -221.4 -25.314 -42.457 -241.5 -5.914
54.751 54.750 -77.157 -221.4 -25.314 -42.457 -241.5 -5.914
54.771 54.770 -77.157 -221.3 -25.314 -42.457 -241.5 -5.914
54.794 54.790 -77.057 -221.3 -25.314 -42.457 -241.5 -5.914
54.811 54.810 -77.157 -221.3 -25.213999 -42.457 -241.5 -5.914
54.831 54.830 -77.057 -221.3 -25.213999 -42.457 -241.5 -5.914
54.851 54.850 -77.057 -221.3 -25.213999 -42.457 -241.5 -5.914
54.871 54.870 -77.057 -221.3 -25.114 -42.457 -241.5 -5.914
54.890 54.890 -77.057 -221.2 -25.014 -42.457 -241.5 -5.914
54.911 54.910 -77.057 -221.2 -25.014 -42.457 -241.5 -5.914
54.931 54.930 -77.057 -221.1 -24.914 -42.457 -241.5 -5.914
54.950 54.950 -77.057 -221.1 -25.014 -42.457 -241.5 -5.914
54.971 54.970 -77.057 -221.1 -24.814 -42.457 -241.5 -5.914
54.991 54.990 -77.057 -221.0 -24.713999 -42.457 -241.5 -5.914
55.011 55.010 -77.057 -221.0 -24.713999 -42.457 -241.5 -5.914
55.031 55.030 -77.057 -220.9 -24.614 -42.457 -241.5 -5.914
55.051 55.050 -77.057 -220.9 -24.414 -42.457 -241.5 -5.914
55.071 55.070 -77.157 -220.9 -24.314 -42.457 -241.5 -5.914
55.091 55.090 -77.157 -220.8 -24.213999 -42.457 -241.5 -5.914
55.111 55.110 -77.157 -220.8 -24.114 -42.457 -241.5 -5.914
55.131 55.130 -77.157 -220.8 -24.114 -42.457 -241.5 -5.914
55.151 55.150 -77.157 -220.7 -23.914 -42.457 -241.5 -5.914
55.171 55.170 -77.257 -220.7 -23.814 -42.457 -241.5 -5.914
55.191 55.190 -77.257 -220.6 -23.713999 -42.457 -241.5 -5.914
55.211 55.210 -77.257 -220.6 -23.614 -42.457 -241.5 -5.914
55.231 55.230 -77.257 -220.5 -23.514 -42.457 -241.5 -5.914
55.252 55.250 -77.257 -220.5 -23.314 -42.457 -241.5 -5.914
55.270 55.270 -77.257 -220.4 -23.314 -42.457 -241.5 -5.914
55.291 55.290 -77.257 -220.4 -23.213999 -42.457 -241.5 -5.914
55.310 55.310 -77.257 -220.3 -23.213999 -42.457 -241.5 -5.914
55.330 55.330 -77.257 -220.3 -23.114 -42.457 -241.5 -5.914
55.350 55.350 -77.157 -220.2 -23.014 -42.457 -241.5 -5.914
55.371 55.370 -77.157 -220.2 -22.914 -42.457 -241.5 -5.914
55.391 55.390 -77.157 -220.1 -22.814 -42.457 -241.5 -5.914
55.411 55.410 -77.157 -220.0 -22.814 -42.457 -241.5 -5.914
55.431 55.430 -77.057 -220.0 -22.814 -42.457 -241.5 -5.914
55.454 55.450 -77.057 -219.9 -22.713999 -42.457 -241.5 -5.914
55.471 55.470 -77.057 -219.9 -22.713999 -42.457 -241.5 -5.914
55.491 55.490 -77.057 -219.9 -22.614 -42.457 -241.5 -5.914
55.511 55.510 -77.057 -219.9 -22.614 -42.457 -241.5 -5.914
55.531 55.530 -77.057 -219.8 -22.514 -42.457 -241.5 -5.914
55.551 55.550 -77.057 -219.8 -22.514 -42.457 -241.5 -5.914
55.571 55.570 -77.057 -219.8 -22.514 -42.457 -241.5 -5.914
55.591 55.590 -76.957 -219.7 -22.514 -42.457 -241.5 -5.914
55.611 55.610 -76.957 -219.7 -22.514 -42.457 -241.5 -5.914
55.631 55.630 -76.957 -219.7 -22.514 -42.457 -241.5 -5.914
55.651 55.650 -76.957 -219.7 -22.514 -42.457 -241.5 -5.914
55.671 55.670 -76.957 -219.7 -22.514 -42.457 -241.5 -5.914
55.691 55.690 -76.957 -219.7 -22.514 -42.457 -241.5 -5.914
55.711 55.710 -76.857 -219.6 -22.514 -42.457 -241.5 -5.914
55.731 55.730 -76.857 -219.6 -22.514 -42.457 -241.5 -5.914
55.754 55.750 -76.857 -219.6 -22.514 -42.457 -241.5 -5.914
55.771 55.770 -76.857 -219.6 -22.514 -42.457 -241.5 -5.914
55.791 55.790 -76.757 -219.6 -22.514 -42.457 -241.5 -5.914
55.811 55.810 -76.757 -219.6 -22.514 -42.457 -241.5 -5.914
55.831 55.830 -76.757 -219.6 -22.514 -42.457 -241.5 -5.914
55.851 55.850 -76.757 -219.6 -22.514 -42.457 -241.5 -5.914
55.871 55.870 -76.857 -219.6 -22.514 -42.457 -241.5 -5.914
55.891 55.890 -76.857 -219.7 -22.514 -42.457 -241.5 -5.914
55.911 55.910 -76.857 -219.7 -22.414 -42.457 -241.5 -5.914
55.931 55.930 -76.857 -219.7 -22.514 -42.457 -241.5 -5.914
55.951 55.950 -76.957 -219.7 -22.514 -42.457 -241.5 -5.914
55.971 55.970 -76.957 -219.7 -22.514 -42.457 -241.5 -5.914
55.991 55.990 -76.957 -219.7 -22.514 -42.457 -241.5 -5.914
56.011 56.010 -76.957 -219.8 -22.414 -42.457 -241.5 -5.914
56.031 56.030 -77.057 -219.8 -22.514 -42.457 -241.5 -5.914
56.054 56.050 -77.057 -219.9 -22.514 -42.457 -241.5 -5.914
56.071 56.070 -77.057 -219.9 -22.414 -42.457 -241.5 -5.914
56.090 56.090 -77.057 -219.9 -22.414 -42.457 -241.5 -5.914
56.111 56.110 -77.057 -220.0 -22.414 -42.457 -241.5 -5.914
56.131 56.130 -77.057 -220.0 -22.414 -42.457 -241.5 -5.914
56.150 56.150 -77.057 -220.0 -22.414 -42.457 -241.5 -5.914
56.170 56.170 -77.157 -220.0 -22.514 -42.457 -241.5 -5.914
56.190 56.190 -77.157 -220.1 -22.514 -42.457 -241.5 -5.914
56.210 56.210 -77.157 -220.1 -22.514 -42.457 -241.5 -5.914
56.230 56.230 -77.157 -220.1 -22.514 -42.457 -241.5 -5.914
56.251 56.250 -77.157 -220.1 -22.514 -42.457 -241.5 -5.914
56.271 56.270 -77.157 -220.1 -22.514 -42.457 -241.5 -5.914
56.291 56.290 -77.157 -220.1 -22.514 -42.457 -241.5 -5.914
56.311 56.310 -77.157 -220.2 -22.514 -42.457 -241.5 -5.914
56.331 56.330 -77.157 -220.2 -22.514 -42.457 -241.5 -5.914
56.352 56.350 -77.157 -220.2 -22.514 -42.457 -241.5 -5.914
56.371 56.370 -77.157 -220.3 -22.414 -42.457 -241.5 -5.914
56.391 56.390 -77.157 -220.3 -22.514 -42.457 -241.5 -5.914
56.411 56.410 -77.157 -220.3 -22.514 -42.457 -241.5 -5.914
56.431 56.430 -77.257 -220.3 -22.514 -42.457 -241.5 -5.914
56.451 56.450 -77.157 -220.3 -22.414 -42.457 -241.5 -5.914
56.471 56.470 -77.257 -220.3 -22.414 -42.457 -241.5 -5.914
56.491 56.490 -77.157 -220.3 -22.514 -42.457 -241.5 -5.914
56.511 56.510 -77.157 -220.3 -22.514 -42.457 -241.5 -5.914
56.531 56.530 -77.157 -220.3 -22.414 -42.457 -241.5 -5.914
56.551 56.550 -77.157 -220.3 -22.414 -42.457 -241.5 -5.914
56.571 56.570 -77.157 -220.4 -22.414 -42.457 -241.5 -5.914
56.591 56.590 -77.157 -220.4 -22.414 -42.457 -241.5 -5.914
56.611 56.610 -77.157 -220.4 -22.514 -42.457 -241.5 -5.914
56.631 56.630 -77.157 -220.4 -22.414 -42.457 -241.5 -5.914
56.651 56.650 -77.157 -220.4 -22.414 -42.457 -241.5 -5.914
56.671 56.670 -77.157 -220.4 -22.514 -42.457 -241.5 -5.914
56.691 56.690 -77.157 -220.4 -22.514 -42.457 -241.5 -5.914
56.711 56.710 -77.157 -220.4 -22.414 -42.457 -241.5 -5.914
56.731 56.730 -77.157 -220.4 -22.414 -42.457 -241.5 -5.914
56.751 56.750 -77.057 -220.4 -22.414 -42.457 -241.5 -5.914
56.771 56.770 -77.057 -220.4 -22.414 -42.457 -241.5 -5.914
56.791 56.790 -77.057 -220.4 -22.414 -42.457 -241.5 -5.914
56.811 56.810 -77.057 -220.4 -22.414 -42.457 -241.5 -5.914
56.831 56.830 -77.057 -220.5 -22.414 -42.457 -241.5 -5.914
56.851 56.850 -77.057 -220.5 -22.514 -42.457 -241.5 -5.914
56.872 56.870 -77.157 -220.5 -22.514 -42.457 -241.5 -5.914
56.891 56.890 -77.157 -220.5 -22.414 -42.457 -241.5 -5.914
56.911 56.910 -77.157 -220.5 -22.414 -42.457 -241.5 -5.914
56.932 56.930 -77.157 -220.5 -22.414 -42.457 -241.5 -5.914
56.951 56.950 -77.257 -220.6 -22.414 -42.457 -241.5 -5.914
56.971 56.970 -77.257 -220.6 -22.414 -42.457 -241.5 -5.914
56.991 56.990 -77.257 -220.6 -22.414 -42.457 -241.5 -5.914
57.011 57.010 -77.357 -220.6 -22.414 -42.457 -241.5 -5.914
57.031 57.030 -77.357 -220.6 -22.514 -42.457 -241.5 -5.914
57.051 57.050 -77.357 -220.6 -22.614 -42.457 -241.5 -5.914
57.071 57.070 -77.257 -220.6 -22.614 -42.457 -241.5 -5.914
57.091 57.090 -77.357 -220.7 -22.614 -42.457 -241.5 -5.914
57.111 57.110 -77.357 -220.7 -22.614 -42.457 -241.5 -5.914
57.131 57.130 -77.357 -220.7 -22.713999 -42.457 -241.5 -5.914
57.151 57.150 -77.457 -220.7 -22.814 -42.457 -241.5 -5.914
57.171 57.170 -77.357 -220.7 -22.814 -42.457 -241.5 -5.914
57.191 57.190 -77.357 -220.7 -22.814 -42.457 -241.5 -5.914
57.211 57.210 -77.457 -220.7 -22.814 -42.457 -241.5 -5.914
57.231 57.230 -77.457 -220.7 -22.814 -42.457 -241.5 -5.914
57.251 57.250 -77.457 -220.7 -22.814 -42.457 -241.5 -5.914
57.271 57.270 -77.457 -220.7 -22.814 -42.457 -241.5 -5.914
57.291 57.290 -77.457 -220.8 -22.814 -42.457 -241.5 -5.914
57.310 57.310 -77.557 -220.8 -22.814 -42.457 -241.5 -5.914
57.330 57.330 -77.557 -220.8 -22.814 -42.457 -241.5 -5.914
57.350 57.350 -77.557 -220.8 -22.814 -42.457 -241.5 -5.914
57.370 57.370 -77.557 -220.7 -22.814 -42.457 -241.5 -5.914
57.390 57.390 -77.557 -220.7 -22.914 -42.457 -241.5 -5.914
57.410 57.410 -77.557 -220.7 -22.914 -42.457 -241.5 -5.914
57.430 57.430 -77.557 -220.7 -23.014 -42.457 -241.5 -5.914
57.451 57.450 -77.557 -220.7 -22.914 -42.457 -241.5 -5.914
57.471 57.470 -77.557 -220.7 -22.914 -42.457 -241.5 -5.914
57.491 57.490 -77.557 -220.7 -23.014 -42.457 -241.5 -5.914
57.511 57.510 -77.557 -220.7 -23.014 -42.457 -241.5 -5.914
57.532 57.530 -77.557 -220.7 -23.014 -42.457 -241.5 -5.914
57.551 57.550 -77.557 -220.7 -23.014 -42.457 -241.5 -5.914
57.571 57.570 -77.557 -220.7 -23.114 -42.457 -241.5 -5.914
57.591 57.590 -77.557 -220.8 -23.014 -42.457 -241.5 -5.914
57.614 57.610 -77.557 -220.8 -23.014 -42.457 -241.5 -5.914
57.631 57.630 -77.557 -220.8 -23.014 -42.457 -241.5 -5.914
57.651 57.650 -77.557 -220.8 -23.014 -42.457 -241.5 -5.914
57.671 57.670 -77.657 -220.8 -23.014 -42.457 -241.5 -5.914
57.691 57.690 -77.657 -220.9 -23.114 -42.457 -241.5 -5.914
57.711 57.710 -77.657 -220.9 -23.114 -42.457 -241.5 -5.914
57.731 57.730 -77.557 -220.9 -23.114 -42.457 -241.5 -5.914
57.751 57.750 -77.657 -220.9 -23.114 -42.457 -241.5 -5.914
57.771 57.770 -77.657 -221.0 -23.014 -42.457 -241.5 -5.914
57.791 57.790 -77.757 -221.1 -23.114 -42.457 -241.5 -5.914
57.811 57.810 -77.757 -221.2 -23.114 -42.457 -241.5 -5.914
57.831 57.830 -77.757 -221.3 -23.213999 -42.457 -241.5 -5.914
57.851 57.850 -77.757 -221.3 -23.314 -42.457 -241.5 -5.914
57.871 57.870 -77.857 -221.5 -23.414 -42.457 -241.5 -5.914
57.891 57.890 -77.957 -221.6 -23.514 -42.457 -241.5 -5.914
57.914 57.910 -77.957 -221.8 -23.614 -42.457 -241.5 -5.914
57.931 57.930 -78.057 -222.0 -23.914 -42.457 -241.5 -5.914
57.951 57.950 -78.057 -222.2 -24.014 -42.457 -241.5 -5.914
57.971 57.970 -78.057 -222.5 -24.314 -42.457 -241.5 -5.914
57.991 57.990 -77.968 -223.242 -25.050999 -42.457 -241.5 -5.914
58.011 58.010 -77.57 -224.534 -26.869 -42.457 -241.5 -5.914
58.031 58.030 -77.225006 -225.557 -29.011 -42.457 -241.5 -5.914
58.051 58.050 -76.313995 -226.40201 -31.532999 -42.457 -241.5 -5.914
58.071 58.070 -74.701996 -226.857 -33.713 -42.457 -241.5 -5.914
58.091 58.090 -74.108 -227.715 -35.539 -42.457 -241.5 -5.914
58.111 58.110 -71.607 -226.699 -36.739002 -42.457 -241.5 -5.914
58.131 58.130 -71.03 -226.696 -38.608 -42.457 -241.5 -5.914
58.151 58.150 -68.575 -225.794 -39.895 -42.457 -241.5 -5.914
58.171 58.170 -67.043 -225.679 -41.135002 -42.457 -241.5 -5.914
58.191 58.190 -65.22 -224.939 -42.876003 -42.457 -241.5 -5.914
58.211 58.210 -63.428 -225.08301 -44.045002 -42.457 -241.5 -5.914
58.231 58.230 -58.303 -224.283 -43.559 -39.7 -242.8 -4.1
58.251 58.250 -57.21 -223.955 -45.947002 -39.3 -241.5 -5.7
58.271 58.270 -55.148 -222.815 -47.012 -39.3 -241.5 -5.7
58.292 58.290 -52.901 -223.27899 -46.279 -39.3 -241.5 -5.7
58.312 58.310 -50.327 -222.465 -46.693 -39.3 -241.5 -5.7
58.331 58.330 -46.672 -222.908 -47.094 -39.3 -241.5 -5.7
58.352 58.350 -42.67 -221.571 -47.782 -39.3 -241.5 -5.7
58.371 58.370 -40.623 -222.041 -47.556 -39.3 -241.5 -5.7
58.391 58.390 -38.618 -221.881 -46.699 -39.3 -241.5 -5.7
58.411 58.410 -38.02 -222.554 -44.926003 -39.3 -241.5 -5.7
58.431 58.430 -33.265 -222.373 -44.633 -39.3 -241.5 -5.7
58.451 58.450 -32.593 -223.0 -45.275 -39.3 -241.5 -5.7
58.471 58.470 -32.527 -222.679 -44.685 -39.3 -241.5 -5.7
58.494 58.490 -33.815 -222.501 -45.638 -39.3 -241.5 -5.7
58.511 58.510 -32.994 -222.688 -44.131 -39.3 -241.5 -5.7
58.532 58.530 -30.984 -221.033 -44.737 -39.3 -241.5 -5.7
58.551 58.550 -30.398998 -221.355 -44.757 -39.3 -241.5 -5.7
58.571 58.570 -32.277 -221.179 -45.09 -39.3 -241.5 -5.7
58.591 58.590 -30.632 -220.046 -44.177002 -39.3 -241.5 -5.7
58.611 58.610 -31.223999 -221.229 -42.674 -39.3 -241.5 -5.7
58.631 58.630 -31.153 -220.86 -44.514 -39.3 -241.5 -5.7
58.651 58.650 -30.348999 -220.703 -43.607002 -39.3 -241.5 -5.7
58.671 58.670 -29.539999 -220.55 -43.316 -39.3 -241.5 -5.7
58.691 58.690 -30.355999 -220.718 -43.036 -39.3 -241.5 -5.7
58.711 58.710 -30.61 -221.02899 -43.661 -39.3 -241.5 -5.7
58.731 58.730 -30.59 -221.159 -44.566 -39.3 -241.5 -5.7
58.751 58.750 -30.883 -221.637 -44.276 -39.3 -241.5 -5.7
58.771 58.770 -30.387 -221.023 -43.712 -39.3 -241.5 -5.7
58.793 58.790 -30.954998 -221.361 -42.595 -39.3 -241.5 -5.7
58.811 58.810 -31.683998 -221.476 -44.038002 -39.3 -241.5 -5.7
58.831 58.830 -30.944 -221.331 -44.333 -39.3 -241.5 -5.7
58.851 58.850 -31.738998 -221.781 -43.051003 -39.3 -241.5 -5.7
58.871 58.870 -31.314999 -221.242 -43.147 -39.3 -241.5 -5.7
58.891 58.890 -32.073997 -218.57701 -46.09 -44.8 -233.6 -14.7
58.911 58.910 -32.447998 -218.72601 -45.75 -44.8 -233.6 -14.7
58.933 58.930 -31.681 -218.832 -46.348 -44.8 -233.6 -14.7
58.951 58.950 -31.241 -218.367 -45.898 -44.8 -233.6 -14.7
58.970 58.970 -30.985 -219.322 -44.67 -44.8 -233.6 -14.7
58.991 58.990 -31.569 -219.572 -45.125 -44.8 -233.6 -14.7
59.011 59.010 -30.762 -219.175 -45.399 -44.8 -233.6 -14.7
59.031 59.030 -29.506 -219.37001 -44.154 -44.8 -233.6 -14.7
59.050 59.050 -30.204998 -219.44101 -45.479 -44.8 -233.6 -14.7
59.070 59.070 -30.32 -220.071 -45.36 -44.8 -233.6 -14.7
59.091 59.090 -29.786999 -219.587 -45.259 -44.8 -233.6 -14.7
59.111 59.110 -29.946 -219.95801 -44.671 -44.8 -233.6 -14.7
59.131 59.130 -30.119999 -220.557 -44.57 -44.8 -233.6 -14.7
59.151 59.150 -30.284 -220.343 -45.015 -44.8 -233.6 -14.7
59.171 59.170 -29.821 -220.276 -44.179 -44.8 -233.6 -14.7
59.191 59.190 -29.794998 -220.472 -43.882 -44.8 -233.6 -14.7
59.211 59.210 -29.938 -220.085 -44.581 -44.8 -233.6 -14.7
59.231 59.230 -29.696999 -220.384 -44.541 -44.8 -233.6 -14.7
59.250 59.250 -29.034 -219.92801 -43.5 -44.8 -233.6 -14.7
59.271 59.270 -28.545 -219.82701 -43.706 -44.8 -233.6 -14.7
59.291 59.290 -29.578999 -220.35101 -45.118 -44.8 -233.6 -14.7
59.311 59.310 -29.814 -220.429 -43.659 -44.8 -233.6 -14.7
59.331 59.330 -29.586998 -220.66101 -44.095 -44.8 -233.6 -14.7
59.351 59.350 -29.956 -220.078 -44.281 -44.8 -233.6 -14.7
59.370 59.370 -29.782 -220.794 -43.394 -44.8 -233.6 -14.7
59.391 59.390 -29.739998 -220.235 -43.793 -44.8 -233.6 -14.7
59.410 59.410 -29.866 -220.59401 -43.454998 -44.8 -233.6 -14.7
59.430 59.430 -29.914 -220.59601 -43.814 -44.8 -233.6 -14.7
59.450 59.450 -29.599998 -220.70001 -43.5 -44.8 -233.6 -14.7
59.470 59.470 -29.3 -221.0 -43.2 -44.8 -233.6 -14.7
59.490 59.490 -29.3 -221.0 -43.3 -44.8 -233.6 -14.7
59.511 59.510 -29.3 -221.0 -43.3 -44.8 -233.6 -14.7
59.531 59.530 -29.3 -221.0 -43.3 -44.8 -233.6 -14.7
59.551 59.550 -29.4 -221.1 -43.3 -44.8 -233.6 -14.7
59.571 59.570 -29.4 -221.0 -43.4 -44.8 -233.6 -14.7
59.591 59.590 -29.4 -221.0 -43.4 -44.8 -233.6 -14.7
59.611 59.610 -29.4 -221.0 -43.4 -44.8 -233.6 -14.7
59.631 59.630 -29.5 -221.1 -43.5 -44.8 -233.6 -14.7
59.651 59.650 -29.5 -221.1 -43.5 -44.8 -233.6 -14.7
59.671 59.670 -29.599998 -221.1 -43.5 -44.8 -233.6 -14.7
59.691 59.690 -29.699999 -221.1 -43.4 -44.8 -233.6 -14.7
59.711 59.710 -29.699999 -221.1 -43.4 -44.8 -233.6 -14.7
59.731 59.730 -29.699999 -221.1 -43.4 -44.8 -233.6 -14.7
59.751 59.750 -29.8 -221.1 -43.4 -44.8 -233.6 -14.7
59.773 59.770 -29.8 -221.1 -43.4 -44.8 -233.6 -14.7
59.791 59.790 -29.9 -221.1 -43.4 -44.8 -233.6 -14.7
59.811 59.810 -29.9 -221.20001 -43.4 -44.8 -233.6 -14.7
59.831 59.830 -29.9 -221.20001 -43.3 -44.8 -233.6 -14.7
59.851 59.850 -30.0 -221.20001 -43.3 -44.8 -233.6 -14.7
59.871 59.870 -30.099998 -221.20001 -43.4 -44.8 -233.6 -14.7
59.891 59.890 -30.199999 -221.3 -43.3 -44.8 -233.6 -14.7
59.911 59.910 -30.199999 -221.3 -43.3 -44.8 -233.6 -14.7
59.931 59.930 -30.3 -221.3 -43.3 -44.8 -233.6 -14.7
59.951 59.950 -30.3 -221.3 -43.3 -44.8 -233.6 -14.7
59.971 59.970 -30.3 -221.3 -43.4 -44.8 -233.6 -14.7
59.991 59.990 -30.4 -221.40001 -43.4 -44.8 -233.6 -14.7
60.011 60.010 -30.4 -221.40001 -43.4 -44.8 -233.6 -14.7
60.031 60.030 -30.4 -221.40001 -43.4 -44.8 -233.6 -14.7
60.052 60.050 -30.4 -221.40001 -43.5 -44.8 -233.6 -14.7
60.074 60.070 -30.4 -221.40001 -43.5 -44.8 -233.6 -14.7
60.091 60.090 -30.5 -221.5 -43.5 -44.8 -233.6 -14.7
60.111 60.110 -30.5 -221.5 -43.6 -44.8 -233.6 -14.7
60.131 60.130 -30.5 -221.5 -43.6 -44.8 -233.6 -14.7
60.151 60.150 -30.5 -221.5 -43.5 -44.8 -233.6 -14.7
60.171 60.170 -30.5 -221.5 -43.6 -44.8 -233.6 -14.7
60.191 60.190 -30.5 -221.5 -43.5 -44.8 -233.6 -14.7
60.211 60.210 -30.5 -221.5 -43.5 -44.8 -233.6 -14.7
60.231 60.230 -30.5 -221.5 -43.4 -44.8 -233.6 -14.7
60.251 60.250 -30.5 -221.6 -43.4 -44.8 -233.6 -14.7
60.272 60.270 -30.5 -221.6 -43.4 -44.8 -233.6 -14.7
60.291 60.290 -30.5 -221.6 -43.5 -44.8 -233.6 -14.7
60.311 60.310 -30.5 -221.6 -43.4 -44.8 -233.6 -14.7
60.331 60.330 -30.5 -221.6 -43.5 -44.8 -233.6 -14.7
60.351 60.350 -30.5 -221.6 -43.4 -44.8 -233.6 -14.7
60.371 60.370 -30.5 -221.6 -43.5 -44.8 -233.6 -14.7
60.391 60.390 -30.5 -221.70001 -43.6 -44.8 -233.6 -14.7
60.411 60.410 -30.5 -221.70001 -43.5 -44.8 -233.6 -14.7
60.431 60.430 -30.5 -221.70001 -43.6 -44.8 -233.6 -14.7
60.452 60.450 -30.5 -221.70001 -43.6 -44.8 -233.6 -14.7
60.471 60.470 -30.5 -221.70001 -43.6 -44.8 -233.6 -14.7
60.491 60.490 -30.5 -221.6 -43.6 -44.8 -233.6 -14.7
60.511 60.510 -30.5 -221.6 -43.6 -44.8 -233.6 -14.7
60.531 60.530 -30.5 -221.6 -43.6 -44.8 -233.6 -14.7
60.551 60.550 -30.5 -221.6 -43.6 -44.8 -233.6 -14.7
60.571 60.570 -30.5 -221.6 -43.6 -44.8 -233.6 -14.7
60.592 60.590 -30.5 -221.70001 -43.6 -44.8 -233.6 -14.7
60.611 60.610 -30.5 -221.6 -43.6 -44.8 -233.6 -14.7
60.631 60.630 -30.5 -221.6 -43.7 -44.8 -233.6 -14.7
60.654 60.650 -30.5 -221.6 -43.6 -44.8 -233.6 -14.7
60.671 60.670 -30.5 -221.6 -43.5 -44.8 -233.6 -14.7
60.691 60.690 -30.4 -221.6 -43.5 -44.8 -233.6 -14.7
60.711 60.710 -30.5 -221.6 -43.4 -44.8 -233.6 -14.7
60.731 60.730 -30.5 -221.6 -43.4 -44.8 -233.6 -14.7
60.751 60.750 -30.5 -221.6 -43.5 -44.8 -233.6 -14.7
60.771 60.770 -30.5 -221.6 -43.5 -44.8 -233.6 -14.7
60.791 60.790 -30.5 -221.6 -43.5 -44.8 -233.6 -14.7
60.811 60.810 -30.5 -221.6 -43.5 -44.8 -233.6 -14.7
60.831 60.830 -30.599998 -221.6 -43.6 -44.8 -233.6 -14.7
60.851 60.850 -30.5 -221.6 -43.6 -44.8 -233.6 -14.7
60.870 60.870 -30.599998 -221.6 -43.6 -44.8 -233.6 -14.7
60.890 60.890 -30.599998 -221.6 -43.6 -44.8 -233.6 -14.7
60.910 60.910 -30.599998 -221.6 -43.6 -44.8 -233.6 -14.7
