magnetometer.txt

All values are in micro-Tesla (uT). Factory calibration and temperature compensation are applied to this measurement
http://developer.android.com/guide/topics/sensors/sensors_overview.html

elapsed-time-system elapsed-time-sensor x y z estimated-bias-x estimated-bias-y estimated-bias-z
0.039 0.038 -2.0 -230.5 -86.0 -12.6 -206.7 -49.7
0.049 0.048 -2.0 -230.5 -86.0 -12.6 -206.7 -49.7
0.059 0.058 4.8999996 -210.59999 -85.100006 -12.6 -206.7 -49.7
0.069 0.068 4.8999996 -210.59999 -85.100006 -12.6 -206.7 -49.7
0.079 0.078 5.3999996 -210.59999 -85.4 -12.6 -206.7 -49.7
0.089 0.088 5.3999996 -210.59999 -85.4 -12.6 -206.7 -49.7
0.099 0.098 5.5 -210.5 -85.2 -12.6 -206.7 -49.7
0.109 0.108 5.5 -210.5 -85.2 -12.6 -206.7 -49.7
0.119 0.118 5.6000004 -210.7 -84.9 -12.6 -206.7 -49.7
0.129 0.128 5.6000004 -210.7 -84.9 -12.6 -206.7 -49.7
0.139 0.138 5.699999 -210.59999 -84.9 -12.6 -206.7 -49.7
0.149 0.148 5.699999 -210.59999 -84.9 -12.6 -206.7 -49.7
0.159 0.158 5.799999 -210.59999 -84.9 -12.6 -206.7 -49.7
0.169 0.168 5.799999 -210.59999 -84.9 -12.6 -206.7 -49.7
0.179 0.178 5.699999 -210.7 -84.7 -12.6 -206.7 -49.7
0.189 0.188 5.699999 -210.7 -84.7 -12.6 -206.7 -49.7
0.199 0.198 5.699999 -210.59999 -84.600006 -12.6 -206.7 -49.7
0.209 0.208 5.699999 -210.59999 -84.600006 -12.6 -206.7 -49.7
0.219 0.218 5.699999 -210.7 -84.5 -12.6 -206.7 -49.7
0.229 0.228 5.699999 -210.7 -84.5 -12.6 -206.7 -49.7
0.239 0.238 5.6000004 -210.7 -84.5 -12.6 -206.7 -49.7
0.249 0.248 5.6000004 -210.7 -84.5 -12.6 -206.7 -49.7
0.259 0.258 5.6000004 -210.7 -84.5 -12.6 -206.7 -49.7
0.269 0.268 5.6000004 -210.7 -84.5 -12.6 -206.7 -49.7
0.279 0.278 5.5 -210.59999 -84.600006 -12.6 -206.7 -49.7
0.289 0.288 5.5 -210.59999 -84.600006 -12.6 -206.7 -49.7
0.299 0.298 5.3999996 -210.5 -84.600006 -12.6 -206.7 -49.7
0.309 0.308 5.3999996 -210.5 -84.600006 -12.6 -206.7 -49.7
0.319 0.318 5.299999 -210.4 -84.600006 -12.6 -206.7 -49.7
0.329 0.328 5.299999 -210.4 -84.600006 -12.6 -206.7 -49.7
0.339 0.338 5.1000004 -210.4 -84.7 -12.6 -206.7 -49.7
0.349 0.348 5.1000004 -210.4 -84.7 -12.6 -206.7 -49.7
0.359 0.358 4.8999996 -210.3 -84.8 -12.6 -206.7 -49.7
0.369 0.368 4.8999996 -210.3 -84.8 -12.6 -206.7 -49.7
0.379 0.378 4.799999 -210.3 -84.9 -12.6 -206.7 -49.7
0.389 0.388 4.799999 -210.3 -84.9 -12.6 -206.7 -49.7
0.399 0.398 4.6000004 -210.2 -85.0 -12.6 -206.7 -49.7
0.409 0.408 4.6000004 -210.2 -85.0 -12.6 -206.7 -49.7
0.419 0.418 4.5 -210.0 -85.0 -12.6 -206.7 -49.7
0.429 0.428 4.5 -210.0 -85.0 -12.6 -206.7 -49.7
0.439 0.438 4.299999 -209.9 -85.100006 -12.6 -206.7 -49.7
0.449 0.448 4.299999 -209.9 -85.100006 -12.6 -206.7 -49.7
0.459 0.458 4.1000004 -209.8 -85.2 -12.6 -206.7 -49.7
0.469 0.468 4.1000004 -209.8 -85.2 -12.6 -206.7 -49.7
0.479 0.478 3.8999996 -209.8 -85.3 -12.6 -206.7 -49.7
0.489 0.488 3.8999996 -209.8 -85.3 -12.6 -206.7 -49.7
0.499 0.498 3.6999989 -209.7 -85.5 -12.6 -206.7 -49.7
0.509 0.508 3.6999989 -209.7 -85.5 -12.6 -206.7 -49.7
0.519 0.518 3.6000004 -209.59999 -85.5 -12.6 -206.7 -49.7
0.529 0.528 3.6000004 -209.59999 -85.5 -12.6 -206.7 -49.7
0.539 0.538 3.5 -209.59999 -85.5 -12.6 -206.7 -49.7
0.549 0.548 3.5 -209.59999 -85.5 -12.6 -206.7 -49.7
0.559 0.558 3.3999996 -209.5 -85.5 -12.6 -206.7 -49.7
0.569 0.568 3.3999996 -209.5 -85.5 -12.6 -206.7 -49.7
0.579 0.578 3.2999992 -209.4 -85.600006 -12.6 -206.7 -49.7
0.589 0.588 3.2999992 -209.4 -85.600006 -12.6 -206.7 -49.7
0.599 0.598 3.1999998 -209.4 -85.600006 -12.6 -206.7 -49.7
0.609 0.608 3.1999998 -209.4 -85.600006 -12.6 -206.7 -49.7
0.619 0.618 3.1999998 -209.4 -85.600006 -12.6 -206.7 -49.7
0.629 0.628 3.1999998 -209.4 -85.600006 -12.6 -206.7 -49.7
0.639 0.638 3.1999998 -209.4 -85.600006 -12.6 -206.7 -49.7
0.649 0.648 3.1999998 -209.4 -85.600006 -12.6 -206.7 -49.7
0.660 0.658 3.0999994 -209.3 -85.7 -12.6 -206.7 -49.7
0.669 0.668 3.0999994 -209.3 -85.7 -12.6 -206.7 -49.7
0.679 0.678 3.0999994 -209.3 -85.7 -12.6 -206.7 -49.7
0.689 0.688 3.0999994 -209.3 -85.7 -12.6 -206.7 -49.7
0.700 0.698 3.0999994 -209.4 -85.600006 -12.6 -206.7 -49.7
0.710 0.708 3.0999994 -209.4 -85.600006 -12.6 -206.7 -49.7
0.720 0.718 3.1999998 -209.4 -85.600006 -12.6 -206.7 -49.7
0.729 0.728 3.1999998 -209.4 -85.600006 -12.6 -206.7 -49.7
0.739 0.738 3.7749996 -209.625 -85.229996 -12.6 -206.7 -49.7
0.749 0.748 3.7749996 -209.625 -85.229996 -12.6 -206.7 -49.7
0.759 0.758 5.466999 -210.267 -84.075 -12.6 -206.7 -49.7
0.769 0.768 5.466999 -210.267 -84.075 -12.6 -206.7 -49.7
0.779 0.778 7.507 -210.173 -82.719 -12.6 -206.7 -49.7
0.789 0.788 7.507 -210.173 -82.719 -12.6 -206.7 -49.7
0.799 0.798 9.848999 -209.953 -80.533005 -12.6 -206.7 -49.7
0.809 0.808 9.848999 -209.953 -80.533005 -12.6 -206.7 -49.7
0.819 0.818 13.507 -208.303 -76.421005 -12.6 -206.7 -49.7
0.829 0.828 13.507 -208.303 -76.421005 -12.6 -206.7 -49.7
0.839 0.838 16.997 -206.40399 -74.016 -12.6 -206.7 -49.7
0.849 0.848 16.997 -206.40399 -74.016 -12.6 -206.7 -49.7
0.859 0.858 18.064 -205.678 -70.012 -12.6 -206.7 -49.7
0.869 0.868 18.064 -205.678 -70.012 -12.6 -206.7 -49.7
0.879 0.878 18.895 -202.843 -69.997 -12.6 -206.7 -49.7
0.889 0.888 18.895 -202.843 -69.997 -12.6 -206.7 -49.7
0.899 0.898 19.286999 -200.523 -69.631 -12.6 -206.7 -49.7
0.909 0.908 19.286999 -200.523 -69.631 -12.6 -206.7 -49.7
0.920 0.918 17.775 -198.055 -70.87 -12.6 -206.7 -49.7
0.929 0.928 17.775 -198.055 -70.87 -12.6 -206.7 -49.7
0.939 0.938 16.399 -195.40799 -71.314 -12.6 -206.7 -49.7
0.949 0.948 16.399 -195.40799 -71.314 -12.6 -206.7 -49.7
0.960 0.958 16.008 -194.174 -72.097 -12.6 -206.7 -49.7
0.969 0.968 16.008 -194.174 -72.097 -12.6 -206.7 -49.7
0.979 0.978 13.175999 -194.244 -72.341 -12.6 -206.7 -49.7
0.989 0.988 13.175999 -194.244 -72.341 -12.6 -206.7 -49.7
0.999 0.998 12.990999 -194.31 -73.768005 -12.6 -206.7 -49.7
1.009 1.008 12.990999 -194.31 -73.768005 -12.6 -206.7 -49.7
1.019 1.018 12.609999 -195.443 -77.889 -12.6 -206.7 -49.7
1.030 1.028 12.609999 -195.443 -77.889 -12.6 -206.7 -49.7
1.039 1.038 9.737999 -199.017 -80.553 -12.6 -206.7 -49.7
1.049 1.048 9.737999 -199.017 -80.553 -12.6 -206.7 -49.7
1.059 1.058 6.1140003 -205.693 -84.992004 -12.6 -206.7 -49.7
1.069 1.068 6.1140003 -205.693 -84.992004 -12.6 -206.7 -49.7
1.079 1.078 1.3709993 -208.213 -86.199005 -12.6 -206.7 -49.7
1.089 1.088 1.3709993 -208.213 -86.199005 -12.6 -206.7 -49.7
1.099 1.098 -3.6020002 -208.34999 -88.32 -12.6 -206.7 -49.7
1.109 1.108 -3.6020002 -208.34999 -88.32 -12.6 -206.7 -49.7
1.120 1.118 -7.3760004 -206.00499 -88.093 -12.6 -206.7 -49.7
1.129 1.128 -7.3760004 -206.00499 -88.093 -12.6 -206.7 -49.7
1.139 1.138 -9.307 -204.884 -89.045 -12.6 -206.7 -49.7
1.149 1.148 -9.307 -204.884 -89.045 -12.6 -206.7 -49.7
1.160 1.158 -10.737 -202.64099 -88.509 -12.6 -206.7 -49.7
1.169 1.168 -10.737 -202.64099 -88.509 -12.6 -206.7 -49.7
1.179 1.178 -12.446 -197.673 -87.059006 -12.6 -206.7 -49.7
1.189 1.188 -12.446 -197.673 -87.059006 -12.6 -206.7 -49.7
1.199 1.198 -10.284 -192.75099 -88.284 -12.6 -206.7 -49.7
1.209 1.208 -10.284 -192.75099 -88.284 -12.6 -206.7 -49.7
1.219 1.218 -5.8510003 -193.267 -84.336 -12.6 -206.7 -49.7
1.229 1.228 -5.8510003 -193.267 -84.336 -12.6 -206.7 -49.7
1.239 1.238 0.11899948 -193.821 -85.505005 -12.6 -206.7 -49.7
1.249 1.248 0.11899948 -193.821 -85.505005 -12.6 -206.7 -49.7
1.259 1.258 4.3529987 -194.334 -82.744 -12.6 -206.7 -49.7
1.269 1.268 4.3529987 -194.334 -82.744 -12.6 -206.7 -49.7
1.279 1.278 7.251999 -195.653 -80.288 -12.6 -206.7 -49.7
1.290 1.288 7.251999 -195.653 -80.288 -12.6 -206.7 -49.7
1.300 1.298 9.337999 -197.606 -78.46 -12.6 -206.7 -49.7
1.309 1.308 9.337999 -197.606 -78.46 -12.6 -206.7 -49.7
1.320 1.318 12.461 -201.662 -76.305 -12.6 -206.7 -49.7
1.329 1.328 12.461 -201.662 -76.305 -12.6 -206.7 -49.7
1.339 1.338 15.35 -206.67 -75.371 -12.6 -206.7 -49.7
1.350 1.348 15.35 -206.67 -75.371 -12.6 -206.7 -49.7
1.360 1.358 15.499001 -213.344 -73.846 -12.6 -206.7 -49.7
1.369 1.368 15.499001 -213.344 -73.846 -12.6 -206.7 -49.7
1.379 1.378 15.674999 -219.08899 -72.305 -12.6 -206.7 -49.7
1.389 1.388 15.674999 -219.08899 -72.305 -12.6 -206.7 -49.7
1.399 1.398 12.618 -223.568 -71.395004 -12.6 -206.7 -49.7
1.409 1.408 12.618 -223.568 -71.395004 -12.6 -206.7 -49.7
1.420 1.418 9.409 -232.614 -68.317 -12.6 -206.7 -49.7
1.429 1.428 9.409 -232.614 -68.317 -12.6 -206.7 -49.7
1.439 1.438 6.2059994 -237.805 -64.61 -12.6 -206.7 -49.7
1.449 1.448 6.2059994 -237.805 -64.61 -12.6 -206.7 -49.7
1.459 1.458 4.532999 -242.461 -57.769 -12.6 -206.7 -49.7
1.469 1.468 4.532999 -242.461 -57.769 -12.6 -206.7 -49.7
1.479 1.478 1.0949993 -246.064 -47.467 -12.6 -206.7 -49.7
1.489 1.488 1.0949993 -246.064 -47.467 -12.6 -206.7 -49.7
1.499 1.498 -0.0350008 -244.142 -37.396 -12.6 -206.7 -49.7
1.509 1.508 -0.0350008 -244.142 -37.396 -12.6 -206.7 -49.7
1.520 1.518 1.0339994 -239.87 -26.031 -12.6 -206.7 -49.7
1.530 1.528 1.0339994 -239.87 -26.031 -12.6 -206.7 -49.7
1.539 1.538 0.09200001 -232.914 -19.976 -12.6 -206.7 -49.7
1.549 1.548 0.09200001 -232.914 -19.976 -12.6 -206.7 -49.7
1.559 1.558 0.5629997 -222.75 -12.986 -12.6 -206.7 -49.7
1.569 1.568 0.5629997 -222.75 -12.986 -12.6 -206.7 -49.7
1.579 1.578 2.5959997 -212.427 -10.9939995 -12.6 -206.7 -49.7
1.589 1.588 2.5959997 -212.427 -10.9939995 -12.6 -206.7 -49.7
1.600 1.598 1.323 -200.215 -9.9869995 -12.6 -206.7 -49.7
1.609 1.608 1.323 -200.215 -9.9869995 -12.6 -206.7 -49.7
1.619 1.618 0.5949993 -186.631 -16.841 -12.6 -206.7 -49.7
1.629 1.628 0.5949993 -186.631 -16.841 -12.6 -206.7 -49.7
1.639 1.638 -1.6310005 -177.58499 -22.791 -12.6 -206.7 -49.7
1.649 1.648 -1.6310005 -177.58499 -22.791 -12.6 -206.7 -49.7
1.659 1.658 -0.2840004 -174.556 -28.715 -12.6 -206.7 -49.7
1.669 1.668 -0.2840004 -174.556 -28.715 -12.6 -206.7 -49.7
1.679 1.678 2.2749996 -173.495 -29.307001 -12.6 -206.7 -49.7
1.689 1.688 2.2749996 -173.495 -29.307001 -12.6 -206.7 -49.7
1.699 1.698 2.724 -174.028 -34.939003 -12.6 -206.7 -49.7
1.710 1.708 2.724 -174.028 -34.939003 -12.6 -206.7 -49.7
1.720 1.718 3.1339998 -172.419 -38.381 -12.6 -206.7 -49.7
1.729 1.728 3.1339998 -172.419 -38.381 -12.6 -206.7 -49.7
1.739 1.738 2.4729996 -170.952 -43.403 -12.6 -206.7 -49.7
1.749 1.748 2.4729996 -170.952 -43.403 -12.6 -206.7 -49.7
1.760 1.758 1.2149992 -170.181 -47.802002 -12.6 -206.7 -49.7
1.769 1.768 1.2149992 -170.181 -47.802002 -12.6 -206.7 -49.7
1.779 1.778 1.665 -170.704 -53.452 -12.6 -206.7 -49.7
1.789 1.788 1.665 -170.704 -53.452 -12.6 -206.7 -49.7
1.799 1.798 0.22900009 -172.192 -62.25 -12.6 -206.7 -49.7
1.809 1.808 0.22900009 -172.192 -62.25 -12.6 -206.7 -49.7
1.819 1.818 -1.2379999 -177.361 -71.059 -12.6 -206.7 -49.7
1.829 1.828 -1.2379999 -177.361 -71.059 -12.6 -206.7 -49.7
1.840 1.838 -3.382 -180.604 -76.099 -12.6 -206.7 -49.7
1.849 1.848 -3.382 -180.604 -76.099 -12.6 -206.7 -49.7
1.860 1.858 -6.155 -185.405 -79.573 -12.6 -206.7 -49.7
1.869 1.868 -6.155 -185.405 -79.573 -12.6 -206.7 -49.7
1.879 1.878 -8.383 -190.217 -82.415 -12.6 -206.7 -49.7
1.890 1.888 -8.383 -190.217 -82.415 -12.6 -206.7 -49.7
1.899 1.898 -8.309 -193.14299 -86.193 -12.6 -206.7 -49.7
1.909 1.908 -8.309 -193.14299 -86.193 -12.6 -206.7 -49.7
1.919 1.918 -10.113001 -198.22499 -84.957 -12.6 -206.7 -49.7
1.929 1.928 -10.113001 -198.22499 -84.957 -12.6 -206.7 -49.7
1.939 1.938 -10.676001 -201.381 -86.543 -12.6 -206.7 -49.7
1.949 1.948 -10.676001 -201.381 -86.543 -12.6 -206.7 -49.7
1.959 1.958 -11.22 -202.857 -88.119 -12.6 -206.7 -49.7
1.970 1.968 -11.22 -202.857 -88.119 -12.6 -206.7 -49.7
1.979 1.978 -12.916 -205.357 -89.08 -12.6 -206.7 -49.7
1.989 1.988 -12.916 -205.357 -89.08 -12.6 -206.7 -49.7
1.999 1.998 -13.499001 -205.53099 -88.779 -12.6 -206.7 -49.7
2.009 2.008 -13.499001 -205.53099 -88.779 -12.6 -206.7 -49.7
2.019 2.018 -14.895 -205.515 -89.43 -12.6 -206.7 -49.7
2.029 2.028 -14.895 -205.515 -89.43 -12.6 -206.7 -49.7
2.039 2.038 -16.359001 -203.053 -86.612 -12.6 -206.7 -49.7
2.049 2.048 -16.359001 -203.053 -86.612 -12.6 -206.7 -49.7
2.059 2.058 -16.282 -199.657 -87.865005 -12.6 -206.7 -49.7
2.069 2.068 -16.282 -199.657 -87.865005 -12.6 -206.7 -49.7
2.079 2.078 -16.512001 -195.116 -87.558 -12.6 -206.7 -49.7
2.089 2.088 -16.512001 -195.116 -87.558 -12.6 -206.7 -49.7
2.099 2.098 -13.722 -191.62 -85.335 -12.6 -206.7 -49.7
2.109 2.108 -13.722 -191.62 -85.335 -12.6 -206.7 -49.7
2.120 2.118 -11.162001 -190.08 -85.632996 -12.6 -206.7 -49.7
2.129 2.128 -11.162001 -190.08 -85.632996 -12.6 -206.7 -49.7
2.139 2.138 -5.8470006 -190.731 -84.969 -12.6 -206.7 -49.7
2.149 2.148 -5.8470006 -190.731 -84.969 -12.6 -206.7 -49.7
2.160 2.158 -1.9980001 -190.759 -82.433 -12.6 -206.7 -49.7
2.169 2.168 -1.9980001 -190.759 -82.433 -12.6 -206.7 -49.7
2.179 2.178 5.4839993 -196.40599 -82.378006 -12.6 -206.7 -49.7
2.189 2.188 5.4839993 -196.40599 -82.378006 -12.6 -206.7 -49.7
2.199 2.198 9.549 -201.925 -80.795 -12.6 -206.7 -49.7
2.209 2.208 9.549 -201.925 -80.795 -12.6 -206.7 -49.7
2.219 2.218 11.338999 -207.803 -78.61 -12.6 -206.7 -49.7
2.229 2.228 11.338999 -207.803 -78.61 -12.6 -206.7 -49.7
2.239 2.238 12.844999 -215.50099 -76.737 -12.6 -206.7 -49.7
2.249 2.248 12.844999 -215.50099 -76.737 -12.6 -206.7 -49.7
2.259 2.258 13.400999 -223.795 -71.463 -12.6 -206.7 -49.7
2.269 2.268 13.400999 -223.795 -71.463 -12.6 -206.7 -49.7
2.279 2.278 12.521999 -232.45 -64.942 -12.6 -206.7 -49.7
2.289 2.288 12.521999 -232.45 -64.942 -12.6 -206.7 -49.7
2.299 2.298 9.725 -238.18199 -57.809002 -12.6 -206.7 -49.7
2.309 2.308 9.725 -238.18199 -57.809002 -12.6 -206.7 -49.7
2.319 2.318 7.1970005 -241.61299 -49.413002 -12.6 -206.7 -49.7
2.329 2.328 7.1970005 -241.61299 -49.413002 -12.6 -206.7 -49.7
2.339 2.338 4.0060005 -242.518 -36.601 -12.6 -206.7 -49.7
2.349 2.348 4.0060005 -242.518 -36.601 -12.6 -206.7 -49.7
2.359 2.358 -0.3970003 -240.80699 -28.447 -12.6 -206.7 -49.7
2.369 2.368 -0.3970003 -240.80699 -28.447 -12.6 -206.7 -49.7
2.379 2.378 -2.8770008 -234.122 -17.753 -12.6 -206.7 -49.7
2.389 2.388 -2.8770008 -234.122 -17.753 -12.6 -206.7 -49.7
2.399 2.398 -6.3410006 -227.467 -11.735001 -12.6 -206.7 -49.7
2.409 2.408 -6.3410006 -227.467 -11.735001 -12.6 -206.7 -49.7
2.419 2.418 -10.2300005 -218.188 -9.174999 -12.6 -206.7 -49.7
2.429 2.428 -10.2300005 -218.188 -9.174999 -12.6 -206.7 -49.7
2.439 2.438 -10.723001 -207.685 -6.9120026 -12.6 -206.7 -49.7
2.449 2.448 -10.723001 -207.685 -6.9120026 -12.6 -206.7 -49.7
2.459 2.458 -11.166 -198.787 -7.1679993 -12.6 -206.7 -49.7
2.469 2.468 -11.166 -198.787 -7.1679993 -12.6 -206.7 -49.7
2.479 2.478 -11.2300005 -190.63 -10.894001 -12.6 -206.7 -49.7
2.489 2.488 -11.2300005 -190.63 -10.894001 -12.6 -206.7 -49.7
2.499 2.498 -12.911 -180.918 -16.211002 -12.6 -206.7 -49.7
2.509 2.508 -12.911 -180.918 -16.211002 -12.6 -206.7 -49.7
2.519 2.518 -15.885 -173.136 -25.960001 -12.6 -206.7 -49.7
2.529 2.528 -15.885 -173.136 -25.960001 -12.6 -206.7 -49.7
2.539 2.538 -15.72 -170.657 -30.343 -12.6 -206.7 -49.7
2.549 2.548 -15.72 -170.657 -30.343 -12.6 -206.7 -49.7
2.559 2.558 -14.281 -170.44699 -31.261002 -12.6 -206.7 -49.7
2.569 2.568 -14.281 -170.44699 -31.261002 -12.6 -206.7 -49.7
2.579 2.578 -11.6380005 -168.847 -34.061 -12.6 -206.7 -49.7
2.589 2.588 -11.6380005 -168.847 -34.061 -12.6 -206.7 -49.7
2.599 2.598 -10.733001 -168.29199 -35.609 -12.6 -206.7 -49.7
2.609 2.608 -10.733001 -168.29199 -35.609 -12.6 -206.7 -49.7
2.619 2.618 -9.202001 -168.345 -39.685 -12.6 -206.7 -49.7
2.629 2.628 -9.202001 -168.345 -39.685 -12.6 -206.7 -49.7
2.639 2.638 -8.235001 -168.747 -43.761 -12.6 -206.7 -49.7
2.649 2.648 -8.235001 -168.747 -43.761 -12.6 -206.7 -49.7
2.659 2.658 -6.385 -169.459 -49.078 -12.6 -206.7 -49.7
2.669 2.668 -6.385 -169.459 -49.078 -12.6 -206.7 -49.7
2.679 2.678 -6.7300005 -169.616 -55.997 -12.6 -206.7 -49.7
2.689 2.688 -6.7300005 -169.616 -55.997 -12.6 -206.7 -49.7
2.701 2.698 -6.8280005 -171.31299 -62.597 -12.6 -206.7 -49.7
2.709 2.708 -6.8280005 -171.31299 -62.597 -12.6 -206.7 -49.7
2.720 2.718 -5.892 -173.737 -66.674 -12.6 -206.7 -49.7
2.729 2.728 -5.892 -173.737 -66.674 -12.6 -206.7 -49.7
2.739 2.738 -6.9260006 -176.0 -70.443 -12.6 -206.7 -49.7
2.749 2.748 -6.9260006 -176.0 -70.443 -12.6 -206.7 -49.7
2.760 2.758 -7.622 -180.547 -77.365005 -12.6 -206.7 -49.7
2.769 2.768 -7.622 -180.547 -77.365005 -12.6 -206.7 -49.7
2.779 2.778 -6.7910004 -185.541 -79.25 -12.6 -206.7 -49.7
2.789 2.788 -6.7910004 -185.541 -79.25 -12.6 -206.7 -49.7
2.799 2.798 -4.519 -189.004 -81.435 -12.6 -206.7 -49.7
2.809 2.808 -4.519 -189.004 -81.435 -12.6 -206.7 -49.7
2.819 2.818 -5.3470006 -193.321 -83.949005 -12.6 -206.7 -49.7
2.829 2.828 -5.3470006 -193.321 -83.949005 -12.6 -206.7 -49.7
2.839 2.838 -5.3320003 -197.458 -86.156006 -12.6 -206.7 -49.7
2.849 2.848 -5.3320003 -197.458 -86.156006 -12.6 -206.7 -49.7
2.859 2.858 -6.8160005 -202.996 -86.487 -12.6 -206.7 -49.7
2.869 2.868 -6.8160005 -202.996 -86.487 -12.6 -206.7 -49.7
2.879 2.878 -6.5340004 -203.981 -87.115005 -12.6 -206.7 -49.7
2.889 2.888 -6.5340004 -203.981 -87.115005 -12.6 -206.7 -49.7
2.899 2.898 -8.434 -204.93599 -89.643005 -12.6 -206.7 -49.7
2.909 2.908 -8.434 -204.93599 -89.643005 -12.6 -206.7 -49.7
2.920 2.918 -10.473001 -204.479 -87.46 -12.6 -206.7 -49.7
2.929 2.928 -10.473001 -204.479 -87.46 -12.6 -206.7 -49.7
2.939 2.938 -11.598001 -204.13899 -87.473 -12.6 -206.7 -49.7
2.949 2.948 -11.598001 -204.13899 -87.473 -12.6 -206.7 -49.7
2.959 2.958 -13.178 -199.55899 -89.063995 -12.6 -206.7 -49.7
2.969 2.968 -13.178 -199.55899 -89.063995 -12.6 -206.7 -49.7
2.979 2.978 -15.114 -195.536 -88.451004 -12.6 -206.7 -49.7
2.989 2.988 -15.114 -195.536 -88.451004 -12.6 -206.7 -49.7
2.999 2.998 -14.924 -193.58899 -84.684006 -12.6 -206.7 -49.7
3.009 3.008 -14.924 -193.58899 -84.684006 -12.6 -206.7 -49.7
3.019 3.018 -11.564 -195.567 -85.292 -12.6 -206.7 -49.7
3.030 3.028 -11.564 -195.567 -85.292 -12.6 -206.7 -49.7
3.039 3.038 -5.6430006 -199.832 -87.752 -12.6 -206.7 -49.7
3.049 3.048 -5.6430006 -199.832 -87.752 -12.6 -206.7 -49.7
3.059 3.058 -0.9760008 -203.675 -86.164 -12.6 -206.7 -49.7
3.069 3.068 -0.9760008 -203.675 -86.164 -12.6 -206.7 -49.7
3.079 3.078 0.9069996 -207.507 -85.837006 -12.6 -206.7 -49.7
3.089 3.088 0.9069996 -207.507 -85.837006 -12.6 -206.7 -49.7
3.099 3.098 4.674999 -213.392 -83.64 -12.6 -206.7 -49.7
3.109 3.108 4.674999 -213.392 -83.64 -12.6 -206.7 -49.7
3.120 3.118 5.643999 -219.946 -81.468 -12.6 -206.7 -49.7
3.129 3.128 5.643999 -219.946 -81.468 -12.6 -206.7 -49.7
3.139 3.138 7.0480003 -227.424 -75.857 -12.6 -206.7 -49.7
3.149 3.148 7.0480003 -227.424 -75.857 -12.6 -206.7 -49.7
3.159 3.158 5.1429996 -234.741 -71.204 -12.6 -206.7 -49.7
3.169 3.168 5.1429996 -234.741 -71.204 -12.6 -206.7 -49.7
3.179 3.178 3.712 -240.958 -63.738 -12.6 -206.7 -49.7
3.189 3.188 3.712 -240.958 -63.738 -12.6 -206.7 -49.7
3.199 3.198 -0.26200008 -245.763 -54.099 -12.6 -206.7 -49.7
3.209 3.208 -0.26200008 -245.763 -54.099 -12.6 -206.7 -49.7
3.219 3.218 -1.9530001 -246.726 -44.735 -12.6 -206.7 -49.7
3.229 3.228 -1.9530001 -246.726 -44.735 -12.6 -206.7 -49.7
3.239 3.238 -4.1710005 -244.693 -35.335 -12.6 -206.7 -49.7
3.249 3.248 -4.1710005 -244.693 -35.335 -12.6 -206.7 -49.7
3.259 3.258 -5.0580006 -242.187 -23.714 -12.6 -206.7 -49.7
3.269 3.268 -5.0580006 -242.187 -23.714 -12.6 -206.7 -49.7
3.280 3.278 -5.7900004 -230.946 -13.312 -12.6 -206.7 -49.7
3.289 3.288 -5.7900004 -230.946 -13.312 -12.6 -206.7 -49.7
3.299 3.298 -7.2070003 -220.881 -8.542 -12.6 -206.7 -49.7
3.309 3.308 -7.2070003 -220.881 -8.542 -12.6 -206.7 -49.7
3.320 3.318 -7.655 -210.36299 -7.5440025 -12.6 -206.7 -49.7
3.329 3.328 -7.655 -210.36299 -7.5440025 -12.6 -206.7 -49.7
3.339 3.338 -6.7450004 -200.668 -5.5890007 -12.6 -206.7 -49.7
3.349 3.348 -6.7450004 -200.668 -5.5890007 -12.6 -206.7 -49.7
3.360 3.358 -6.471 -190.80899 -10.547001 -14.3 -207.9 -47.2
3.369 3.368 -6.471 -190.80899 -10.547001 -14.3 -207.9 -47.2
3.379 3.378 -8.923 -180.394 -17.77 -14.3 -207.9 -47.2
3.389 3.388 -8.923 -180.394 -17.77 -14.3 -207.9 -47.2
3.399 3.398 -8.546 -171.937 -26.225 -14.3 -207.9 -47.2
3.409 3.408 -8.546 -171.937 -26.225 -14.3 -207.9 -47.2
3.419 3.418 -9.163 -169.58699 -32.813 -14.3 -207.9 -47.2
3.429 3.428 -9.163 -169.58699 -32.813 -14.3 -207.9 -47.2
3.439 3.438 -6.5020003 -167.97198 -36.245003 -14.3 -207.9 -47.2
3.449 3.448 -6.5020003 -167.97198 -36.245003 -14.3 -207.9 -47.2
3.459 3.458 -5.219 -166.83398 -40.626 -14.3 -207.9 -47.2
3.469 3.468 -5.219 -166.83398 -40.626 -14.3 -207.9 -47.2
3.479 3.478 -4.9700003 -167.80699 -49.105 -14.3 -207.9 -47.2
3.489 3.488 -4.9700003 -167.80699 -49.105 -14.3 -207.9 -47.2
3.499 3.498 -3.3579998 -168.971 -56.015 -14.3 -207.9 -47.2
3.509 3.508 -3.3579998 -168.971 -56.015 -14.3 -207.9 -47.2
3.519 3.518 -2.342 -171.995 -62.61 -14.3 -207.9 -47.2
3.529 3.528 -2.342 -171.995 -62.61 -14.3 -207.9 -47.2
3.539 3.538 -4.408 -176.849 -70.797 -14.3 -207.9 -47.2
3.549 3.548 -4.408 -176.849 -70.797 -14.3 -207.9 -47.2
3.559 3.558 -5.896 -182.372 -79.622 -14.3 -207.9 -47.2
3.569 3.568 -5.896 -182.372 -79.622 -14.3 -207.9 -47.2
3.579 3.578 -6.987 -190.49199 -84.341995 -14.3 -207.9 -47.2
3.589 3.588 -6.987 -190.49199 -84.341995 -14.3 -207.9 -47.2
3.599 3.598 -8.456 -196.883 -84.989 -14.3 -207.9 -47.2
3.609 3.608 -8.456 -196.883 -84.989 -14.3 -207.9 -47.2
3.619 3.618 -11.01 -202.55899 -86.888 -14.3 -207.9 -47.2
3.629 3.628 -11.01 -202.55899 -86.888 -14.3 -207.9 -47.2
3.639 3.638 -10.753 -208.92099 -88.78 -14.3 -207.9 -47.2
3.649 3.648 -10.753 -208.92099 -88.78 -14.3 -207.9 -47.2
3.659 3.658 -9.433001 -213.137 -87.828 -14.3 -207.9 -47.2
3.669 3.668 -9.433001 -213.137 -87.828 -14.3 -207.9 -47.2
3.679 3.678 -9.485001 -216.838 -87.83 -14.3 -207.9 -47.2
3.689 3.688 -9.485001 -216.838 -87.83 -14.3 -207.9 -47.2
3.699 3.698 -10.66 -218.877 -87.216995 -14.3 -207.9 -47.2
3.709 3.708 -10.66 -218.877 -87.216995 -14.3 -207.9 -47.2
3.719 3.718 -11.221001 -220.36899 -88.166 -14.3 -207.9 -47.2
3.729 3.728 -11.221001 -220.36899 -88.166 -14.3 -207.9 -47.2
3.739 3.738 -13.432 -217.85199 -88.499 -14.3 -207.9 -47.2
3.749 3.748 -13.432 -217.85199 -88.499 -14.3 -207.9 -47.2
3.759 3.758 -21.005001 -214.507 -88.563 -14.8 -208.0 -47.3
3.769 3.768 -21.005001 -214.507 -88.563 -14.8 -208.0 -47.3
3.779 3.778 -24.042 -209.967 -88.906 -14.8 -208.0 -47.3
3.789 3.788 -24.042 -209.967 -88.906 -14.8 -208.0 -47.3
3.799 3.798 -23.479 -207.464 -87.965 -14.8 -208.0 -47.3
3.809 3.808 -23.479 -207.464 -87.965 -14.8 -208.0 -47.3
3.819 3.818 -22.586 -204.243 -88.277 -14.8 -208.0 -47.3
3.829 3.828 -22.586 -204.243 -88.277 -14.8 -208.0 -47.3
3.839 3.838 -18.014 -202.494 -89.504 -14.8 -208.0 -47.3
3.849 3.848 -18.014 -202.494 -89.504 -14.8 -208.0 -47.3
3.859 3.858 -13.254 -201.49 -88.216 -14.8 -208.0 -47.3
3.869 3.868 -13.254 -201.49 -88.216 -14.8 -208.0 -47.3
3.879 3.878 -9.293 -202.285 -89.132996 -14.8 -208.0 -47.3
3.889 3.888 -9.293 -202.285 -89.132996 -14.8 -208.0 -47.3
3.899 3.898 -3.9750004 -202.106 -88.155 -14.8 -208.0 -47.3
3.909 3.908 -3.9750004 -202.106 -88.155 -14.8 -208.0 -47.3
3.920 3.918 1.0380001 -200.104 -86.236 -14.8 -208.0 -47.3
3.929 3.928 1.0380001 -200.104 -86.236 -14.8 -208.0 -47.3
3.939 3.938 3.7400007 -198.83 -82.459 -14.8 -208.0 -47.3
3.949 3.948 3.7400007 -198.83 -82.459 -14.8 -208.0 -47.3
3.960 3.958 7.8189993 -198.729 -79.0 -14.8 -208.0 -47.3
3.969 3.968 7.8189993 -198.729 -79.0 -14.8 -208.0 -47.3
3.979 3.978 10.346 -200.528 -80.559 -14.8 -208.0 -47.3
3.989 3.988 10.346 -200.528 -80.559 -14.8 -208.0 -47.3
3.999 3.998 13.821 -204.082 -77.749 -14.8 -208.0 -47.3
4.010 4.008 13.821 -204.082 -77.749 -14.8 -208.0 -47.3
4.019 4.018 15.613 -205.16 -74.015 -14.8 -208.0 -47.3
4.029 4.028 15.613 -205.16 -74.015 -14.8 -208.0 -47.3
4.039 4.038 15.769 -206.384 -71.882 -14.8 -208.0 -47.3
4.049 4.048 15.769 -206.384 -71.882 -14.8 -208.0 -47.3
4.059 4.058 17.098 -207.206 -72.224 -14.8 -208.0 -47.3
4.069 4.068 17.098 -207.206 -72.224 -14.8 -208.0 -47.3
4.079 4.078 16.682999 -209.758 -70.112 -14.8 -208.0 -47.3
4.089 4.088 16.682999 -209.758 -70.112 -14.8 -208.0 -47.3
4.100 4.098 16.870998 -214.206 -70.453995 -14.8 -208.0 -47.3
4.109 4.108 16.870998 -214.206 -70.453995 -14.8 -208.0 -47.3
4.120 4.118 16.211998 -217.406 -68.957 -14.8 -208.0 -47.3
4.129 4.128 16.211998 -217.406 -68.957 -14.8 -208.0 -47.3
4.139 4.138 15.386001 -221.508 -70.499 -14.8 -208.0 -47.3
4.149 4.148 15.386001 -221.508 -70.499 -14.8 -208.0 -47.3
4.160 4.158 13.605999 -225.071 -68.348 -16.7 -208.2 -47.5
4.169 4.168 13.605999 -225.071 -68.348 -16.7 -208.2 -47.5
4.179 4.178 11.573999 -230.954 -66.164 -16.7 -208.2 -47.5
4.189 4.188 11.573999 -230.954 -66.164 -16.7 -208.2 -47.5
4.199 4.198 9.755999 -236.275 -61.493 -16.7 -208.2 -47.5
4.209 4.208 9.755999 -236.275 -61.493 -16.7 -208.2 -47.5
4.219 4.218 6.9519997 -241.08499 -51.822 -16.7 -208.2 -47.5
4.229 4.228 6.9519997 -241.08499 -51.822 -16.7 -208.2 -47.5
4.239 4.238 3.841999 -243.478 -40.544 -16.7 -208.2 -47.5
4.249 4.248 3.841999 -243.478 -40.544 -16.7 -208.2 -47.5
4.259 4.258 -0.08400154 -241.032 -28.905 -16.7 -208.2 -47.5
4.269 4.268 -0.08400154 -241.032 -28.905 -16.7 -208.2 -47.5
4.279 4.278 -3.3930006 -234.851 -18.475 -16.7 -208.2 -47.5
4.289 4.288 -3.3930006 -234.851 -18.475 -16.7 -208.2 -47.5
4.299 4.298 -5.708001 -224.698 -11.473 -16.7 -208.2 -47.5
4.309 4.308 -5.708001 -224.698 -11.473 -16.7 -208.2 -47.5
4.320 4.318 -9.070001 -213.435 -6.994999 -16.7 -208.2 -47.5
4.329 4.328 -9.070001 -213.435 -6.994999 -16.7 -208.2 -47.5
4.339 4.338 -10.296001 -202.678 -8.179001 -16.7 -208.2 -47.5
4.349 4.348 -10.296001 -202.678 -8.179001 -16.7 -208.2 -47.5
4.359 4.358 -9.724001 -188.811 -11.8880005 -16.7 -208.2 -47.5
4.369 4.368 -9.724001 -188.811 -11.8880005 -16.7 -208.2 -47.5
4.379 4.378 -8.642001 -182.12799 -16.55 -16.7 -208.2 -47.5
4.389 4.388 -8.642001 -182.12799 -16.55 -16.7 -208.2 -47.5
4.399 4.398 -8.590001 -175.215 -24.062 -16.7 -208.2 -47.5
4.409 4.408 -8.590001 -175.215 -24.062 -16.7 -208.2 -47.5
4.419 4.418 -9.124001 -170.647 -32.21 -16.7 -208.2 -47.5
4.429 4.428 -9.124001 -170.647 -32.21 -16.7 -208.2 -47.5
4.439 4.438 -8.636001 -167.656 -37.533 -16.7 -208.2 -47.5
4.449 4.448 -8.636001 -167.656 -37.533 -16.7 -208.2 -47.5
4.459 4.458 -8.962001 -167.476 -45.064 -16.7 -208.2 -47.5
4.469 4.468 -8.962001 -167.476 -45.064 -16.7 -208.2 -47.5
4.479 4.478 -9.6380005 -168.002 -50.711998 -16.7 -208.2 -47.5
4.489 4.488 -9.6380005 -168.002 -50.711998 -16.7 -208.2 -47.5
4.499 4.498 -10.046001 -168.69699 -56.053 -16.7 -208.2 -47.5
4.509 4.508 -10.046001 -168.69699 -56.053 -16.7 -208.2 -47.5
4.519 4.518 -10.149 -170.88199 -62.956 -16.7 -208.2 -47.5
4.529 4.528 -10.149 -170.88199 -62.956 -16.7 -208.2 -47.5
4.539 4.538 -9.437 -174.081 -69.237 -16.7 -208.2 -47.5
4.549 4.548 -9.437 -174.081 -69.237 -16.7 -208.2 -47.5
4.559 4.558 -9.882 -177.47699 -74.578 -17.1 -208.2 -47.4
4.569 4.568 -9.882 -177.47699 -74.578 -17.1 -208.2 -47.4
4.579 4.578 -9.857 -183.439 -78.351 -17.1 -208.2 -47.4
4.589 4.588 -9.857 -183.439 -78.351 -17.1 -208.2 -47.4
4.599 4.598 -7.231 -188.83499 -83.677 -17.1 -208.2 -47.4
4.609 4.608 -7.231 -188.83499 -83.677 -17.1 -208.2 -47.4
4.619 4.618 -5.578 -193.836 -84.934006 -17.1 -208.2 -47.4
4.629 4.628 -5.578 -193.836 -84.934006 -17.1 -208.2 -47.4
4.639 4.638 -4.4210005 -199.633 -88.389 -17.1 -208.2 -47.4
4.649 4.648 -4.4210005 -199.633 -88.389 -17.1 -208.2 -47.4
4.659 4.658 -5.6080008 -206.327 -89.659 -17.1 -208.2 -47.4
4.669 4.668 -5.6080008 -206.327 -89.659 -17.1 -208.2 -47.4
4.679 4.678 -7.7390003 -213.441 -87.8 -17.1 -208.2 -47.4
4.689 4.688 -7.7390003 -213.441 -87.8 -17.1 -208.2 -47.4
4.699 4.698 -9.463 -218.301 -88.762 -17.1 -208.2 -47.4
4.709 4.708 -9.463 -218.301 -88.762 -17.1 -208.2 -47.4
4.720 4.718 -14.557 -218.829 -88.493 -17.1 -208.2 -47.4
4.729 4.728 -14.557 -218.829 -88.493 -17.1 -208.2 -47.4
4.739 4.738 -17.128 -218.701 -87.574005 -17.1 -208.2 -47.4
4.749 4.748 -17.128 -218.701 -87.574005 -17.1 -208.2 -47.4
4.759 4.758 -16.31 -217.885 -86.636 -17.1 -208.2 -47.4
4.769 4.768 -16.31 -217.885 -86.636 -17.1 -208.2 -47.4
4.779 4.778 -15.034 -215.58699 -90.716 -17.1 -208.2 -47.4
4.789 4.788 -15.034 -215.58699 -90.716 -17.1 -208.2 -47.4
4.799 4.798 -16.699001 -210.91 -89.479004 -17.1 -208.2 -47.4
4.809 4.808 -16.699001 -210.91 -89.479004 -17.1 -208.2 -47.4
4.819 4.818 -17.468 -205.009 -89.801 -17.1 -208.2 -47.4
4.829 4.828 -17.468 -205.009 -89.801 -17.1 -208.2 -47.4
4.839 4.838 -18.534 -199.47499 -89.496 -17.1 -208.2 -47.4
4.849 4.848 -18.534 -199.47499 -89.496 -17.1 -208.2 -47.4
4.859 4.858 -16.261 -195.939 -88.546005 -17.1 -208.2 -47.4
4.869 4.868 -16.261 -195.939 -88.546005 -17.1 -208.2 -47.4
4.879 4.878 -12.608 -195.422 -88.201004 -17.1 -208.2 -47.4
4.889 4.888 -12.608 -195.422 -88.201004 -17.1 -208.2 -47.4
4.899 4.898 -9.009001 -195.939 -86.607 -17.1 -208.2 -47.4
4.909 4.908 -9.009001 -195.939 -86.607 -17.1 -208.2 -47.4
4.920 4.918 -2.8260002 -195.069 -86.255005 -17.1 -208.2 -47.4
4.929 4.928 -2.8260002 -195.069 -86.255005 -17.1 -208.2 -47.4
4.939 4.938 0.71899986 -194.94499 -83.41 -17.1 -208.2 -47.4
4.949 4.948 0.71899986 -194.94499 -83.41 -17.1 -208.2 -47.4
4.959 4.958 6.272999 -194.123 -81.82 -17.1 -208.2 -47.4
4.969 4.968 6.272999 -194.123 -81.82 -17.1 -208.2 -47.4
4.979 4.978 10.345999 -195.01399 -78.994 -17.1 -208.2 -47.4
4.989 4.988 10.345999 -195.01399 -78.994 -17.1 -208.2 -47.4
4.999 4.998 12.200001 -198.864 -78.082 -17.0 -208.3 -48.1
5.009 5.008 12.200001 -198.864 -78.082 -17.0 -208.3 -48.1
5.019 5.018 14.007999 -202.56 -76.213 -17.0 -207.9 -47.6
5.029 5.028 14.007999 -202.56 -76.213 -17.0 -207.9 -47.6
5.039 5.038 13.863001 -206.26099 -74.384 -17.0 -207.9 -47.6
5.049 5.048 13.863001 -206.26099 -74.384 -17.0 -207.9 -47.6
5.059 5.058 15.806 -209.025 -76.571 -17.0 -207.9 -47.6
5.069 5.068 15.806 -209.025 -76.571 -17.0 -207.9 -47.6
5.079 5.078 14.462999 -216.554 -73.214 -17.0 -207.9 -47.6
5.089 5.088 14.462999 -216.554 -73.214 -17.0 -207.9 -47.6
5.099 5.098 15.241001 -221.16699 -73.858 -17.0 -207.9 -47.6
5.109 5.108 15.241001 -221.16699 -73.858 -17.0 -207.9 -47.6
5.120 5.118 14.184999 -227.096 -68.631996 -17.0 -207.9 -47.6
5.129 5.128 14.184999 -227.096 -68.631996 -17.0 -207.9 -47.6
5.139 5.138 12.922001 -232.86699 -64.922 -17.0 -207.9 -47.6
5.149 5.148 12.922001 -232.86699 -64.922 -17.0 -207.9 -47.6
5.159 5.158 11.579 -237.777 -57.471 -17.0 -207.9 -47.6
5.169 5.168 11.579 -237.777 -57.471 -17.0 -207.9 -47.6
5.179 5.178 9.160999 -240.397 -50.581997 -17.0 -207.9 -47.6
5.190 5.188 9.160999 -240.397 -50.581997 -17.0 -207.9 -47.6
5.199 5.198 6.174999 -241.864 -43.343998 -17.0 -207.9 -47.6
5.209 5.208 6.174999 -241.864 -43.343998 -17.0 -207.9 -47.6
5.219 5.218 5.896 -241.04999 -32.939 -17.0 -207.9 -47.6
5.229 5.228 5.896 -241.04999 -32.939 -17.0 -207.9 -47.6
5.239 5.238 3.4880009 -236.31699 -24.699999 -17.0 -207.9 -47.6
5.249 5.248 3.4880009 -236.31699 -24.699999 -17.0 -207.9 -47.6
5.259 5.258 1.3719997 -228.065 -15.521 -17.0 -207.9 -47.6
5.269 5.268 1.3719997 -228.065 -15.521 -17.0 -207.9 -47.6
5.279 5.278 -1.1370001 -215.664 -10.102997 -17.0 -207.9 -47.6
5.289 5.288 -1.1370001 -215.664 -10.102997 -17.0 -207.9 -47.6
5.299 5.298 -4.6940002 -202.32399 -7.5219994 -17.0 -207.9 -47.6
5.309 5.308 -4.6940002 -202.32399 -7.5219994 -17.0 -207.9 -47.6
5.320 5.318 -7.5129995 -189.64299 -10.933998 -17.0 -207.9 -47.6
5.329 5.328 -7.5129995 -189.64299 -10.933998 -17.0 -207.9 -47.6
5.339 5.338 -7.773 -179.756 -16.541998 -17.0 -207.9 -47.6
5.349 5.348 -7.773 -179.756 -16.541998 -17.0 -207.9 -47.6
5.359 5.358 -7.6549997 -172.12 -25.939 -17.0 -207.9 -47.6
5.369 5.368 -7.6549997 -172.12 -25.939 -17.0 -207.9 -47.6
5.379 5.378 -6.741 -169.17299 -35.967 -17.0 -207.9 -47.6
5.389 5.388 -6.741 -169.17299 -35.967 -17.0 -207.9 -47.6
5.399 5.398 -6.918 -168.086 -39.1 -17.0 -207.9 -47.6
5.409 5.408 -6.918 -168.086 -39.1 -17.0 -207.9 -47.6
5.419 5.418 -6.158 -167.759 -45.057 -16.6 -208.0 -47.6
5.429 5.428 -6.158 -167.759 -45.057 -16.6 -208.0 -47.6
5.439 5.438 -7.5160007 -169.501 -56.367996 -16.6 -208.0 -47.6
5.449 5.448 -7.5160007 -169.501 -56.367996 -16.6 -208.0 -47.6
5.459 5.458 -7.0270004 -170.84799 -63.589996 -16.6 -208.0 -47.6
5.469 5.468 -7.0270004 -170.84799 -63.589996 -16.6 -208.0 -47.6
5.479 5.478 -8.843 -173.72299 -69.89 -16.6 -208.0 -47.6
5.489 5.488 -8.843 -173.72299 -69.89 -16.6 -208.0 -47.6
5.499 5.498 -11.832001 -177.978 -74.931 -16.6 -208.0 -47.6
5.509 5.508 -11.832001 -177.978 -74.931 -16.6 -208.0 -47.6
5.520 5.518 -14.308001 -184.091 -79.667 -16.6 -208.0 -47.6
5.529 5.528 -14.308001 -184.091 -79.667 -16.6 -208.0 -47.6
5.539 5.538 -17.094 -190.394 -83.462 -16.6 -208.0 -47.6
5.549 5.548 -17.094 -190.394 -83.462 -16.6 -208.0 -47.6
5.560 5.558 -21.324001 -194.405 -85.382996 -16.6 -208.0 -47.6
5.569 5.568 -21.324001 -194.405 -85.382996 -16.6 -208.0 -47.6
5.579 5.578 -23.112 -198.636 -84.455 -16.6 -208.0 -47.6
5.590 5.588 -23.112 -198.636 -84.455 -16.6 -208.0 -47.6
5.599 5.598 -24.266 -201.646 -85.09599 -16.6 -208.0 -47.6
5.609 5.608 -24.266 -201.646 -85.09599 -16.6 -208.0 -47.6
5.619 5.618 -25.39 -204.635 -87.0 -16.6 -208.0 -47.6
5.629 5.628 -25.39 -204.635 -87.0 -16.6 -208.0 -47.6
5.639 5.638 -25.451 -206.514 -86.063 -16.6 -208.0 -47.6
5.649 5.648 -25.451 -206.514 -86.063 -16.6 -208.0 -47.6
5.659 5.658 -26.575 -208.164 -87.34 -16.6 -208.0 -47.6
5.669 5.668 -26.575 -208.164 -87.34 -16.6 -208.0 -47.6
5.679 5.678 -27.977001 -206.82 -87.356 -16.6 -208.0 -47.6
5.689 5.688 -27.977001 -206.82 -87.356 -16.6 -208.0 -47.6
5.699 5.698 -29.753 -205.73299 -83.909 -14.5 -207.9 -47.5
5.709 5.708 -29.753 -205.73299 -83.909 -14.5 -207.9 -47.5
5.720 5.718 -29.137001 -205.351 -85.791 -14.5 -207.9 -47.5
5.729 5.728 -29.137001 -205.351 -85.791 -14.5 -207.9 -47.5
5.739 5.738 -29.453 -204.023 -84.541 -14.5 -207.9 -47.5
5.749 5.748 -29.453 -204.023 -84.541 -14.5 -207.9 -47.5
5.759 5.758 -27.392 -201.27199 -86.412 -14.5 -207.9 -47.5
5.769 5.768 -27.392 -201.27199 -86.412 -14.5 -207.9 -47.5
5.779 5.778 -26.851 -197.278 -83.9 -14.5 -207.9 -47.5
5.789 5.788 -26.851 -197.278 -83.9 -14.5 -207.9 -47.5
5.799 5.798 -21.719 -189.70999 -82.917 -14.5 -207.9 -47.5
5.809 5.808 -21.719 -189.70999 -82.917 -14.5 -207.9 -47.5
5.819 5.818 -17.145 -187.297 -84.139 -14.5 -207.9 -47.5
5.829 5.828 -17.145 -187.297 -84.139 -14.5 -207.9 -47.5
5.839 5.838 -9.859 -186.94199 -83.455 -14.5 -207.9 -47.5
5.849 5.848 -9.859 -186.94199 -83.455 -14.5 -207.9 -47.5
5.859 5.858 -3.474 -188.45999 -81.84 -14.5 -207.9 -47.5
5.869 5.868 -3.474 -188.45999 -81.84 -14.5 -207.9 -47.5
5.879 5.878 5.3500004 -191.986 -78.966 -14.5 -207.9 -47.5
5.889 5.888 5.3500004 -191.986 -78.966 -14.5 -207.9 -47.5
5.899 5.898 12.441 -194.72699 -74.54 -14.5 -207.9 -47.5
5.909 5.908 12.441 -194.72699 -74.54 -14.5 -207.9 -47.5
5.919 5.918 17.799 -199.48 -70.151 -14.5 -207.9 -47.5
5.929 5.928 17.799 -199.48 -70.151 -14.5 -207.9 -47.5
5.939 5.938 20.333 -206.092 -65.477 -14.5 -207.9 -47.5
5.949 5.948 20.333 -206.092 -65.477 -14.5 -207.9 -47.5
5.959 5.958 20.446 -214.459 -64.255 -14.5 -207.9 -47.5
5.969 5.968 20.446 -214.459 -64.255 -14.5 -207.9 -47.5
5.979 5.978 18.789001 -225.414 -60.226 -14.8 -207.7 -47.2
5.989 5.988 18.789001 -225.414 -60.226 -14.8 -207.7 -47.2
5.999 5.998 15.110999 -232.83899 -51.834 -14.8 -207.7 -47.2
6.009 6.008 15.110999 -232.83899 -51.834 -14.8 -207.7 -47.2
6.019 6.018 9.797999 -238.448 -44.356 -14.8 -207.7 -47.2
6.029 6.028 9.797999 -238.448 -44.356 -14.8 -207.7 -47.2
6.039 6.038 4.249999 -240.724 -36.842003 -14.8 -207.7 -47.2
6.049 6.048 4.249999 -240.724 -36.842003 -14.8 -207.7 -47.2
6.059 6.058 -1.5130005 -239.485 -30.258001 -14.8 -207.7 -47.2
6.069 6.068 -1.5130005 -239.485 -30.258001 -14.8 -207.7 -47.2
6.079 6.078 -6.8170004 -235.63199 -19.884 -14.8 -207.7 -47.2
6.089 6.088 -6.8170004 -235.63199 -19.884 -14.8 -207.7 -47.2
6.099 6.098 -11.123 -228.458 -13.568001 -14.8 -207.7 -47.2
6.109 6.108 -11.123 -228.458 -13.568001 -14.8 -207.7 -47.2
6.119 6.118 -12.5130005 -217.201 -9.116001 -14.8 -207.7 -47.2
6.129 6.128 -12.5130005 -217.201 -9.116001 -14.8 -207.7 -47.2
6.139 6.138 -12.654 -205.137 -8.431999 -14.8 -207.7 -47.2
6.149 6.148 -12.654 -205.137 -8.431999 -14.8 -207.7 -47.2
6.159 6.158 -15.533 -192.66699 -10.3010025 -14.8 -207.7 -47.2
6.169 6.168 -15.533 -192.66699 -10.3010025 -14.8 -207.7 -47.2
6.179 6.178 -16.185 -186.359 -13.720001 -14.0 -207.2 -47.2
6.189 6.188 -16.185 -186.359 -13.720001 -14.0 -207.2 -47.2
6.199 6.198 -19.563 -178.491 -19.384 -14.0 -207.2 -47.2
6.209 6.208 -19.563 -178.491 -19.384 -14.0 -207.2 -47.2
6.219 6.218 -22.337 -173.76 -27.880001 -14.0 -207.2 -47.2
6.229 6.228 -22.337 -173.76 -27.880001 -14.0 -207.2 -47.2
6.239 6.238 -24.564999 -171.19499 -36.689003 -14.0 -207.2 -47.2
6.249 6.248 -24.564999 -171.19499 -36.689003 -14.0 -207.2 -47.2
6.259 6.258 -25.798 -170.233 -42.035 -14.0 -207.2 -47.2
6.269 6.268 -25.798 -170.233 -42.035 -14.0 -207.2 -47.2
6.279 6.278 -28.442001 -170.095 -47.71 -14.0 -207.2 -47.2
6.289 6.288 -28.442001 -170.095 -47.71 -14.0 -207.2 -47.2
6.299 6.298 -28.342 -171.18199 -51.161 -14.0 -207.2 -47.2
6.309 6.308 -28.342 -171.18199 -51.161 -14.0 -207.2 -47.2
6.320 6.318 -27.118 -170.759 -54.284 -14.0 -207.2 -47.2
6.329 6.328 -27.118 -170.759 -54.284 -14.0 -207.2 -47.2
6.339 6.338 -27.296 -172.354 -58.053 -14.0 -207.2 -47.2
6.349 6.348 -27.296 -172.354 -58.053 -14.0 -207.2 -47.2
6.359 6.358 -27.722 -174.913 -63.721 -14.0 -207.2 -47.2
6.369 6.368 -27.722 -174.913 -63.721 -14.0 -207.2 -47.2
6.379 6.378 -29.052 -177.01599 -67.183 -14.0 -207.2 -47.2
6.389 6.388 -29.052 -177.01599 -67.183 -14.0 -207.2 -47.2
6.399 6.398 -29.858 -179.48799 -69.385 -14.0 -207.2 -47.2
6.409 6.408 -29.858 -179.48799 -69.385 -14.0 -207.2 -47.2
6.419 6.418 -31.239 -182.299 -71.596 -13.6 -207.2 -47.1
6.429 6.428 -31.239 -182.299 -71.596 -13.6 -207.2 -47.1
6.439 6.438 -33.5 -184.46399 -72.548 -13.6 -207.2 -47.1
6.449 6.448 -33.5 -184.46399 -72.548 -13.6 -207.2 -47.1
6.459 6.458 -33.218002 -186.291 -73.49 -13.6 -207.2 -47.1
6.469 6.468 -33.218002 -186.291 -73.49 -13.6 -207.2 -47.1
6.479 6.478 -31.767 -188.079 -75.675 -13.6 -207.2 -47.1
6.489 6.488 -31.767 -188.079 -75.675 -13.6 -207.2 -47.1
6.499 6.498 -30.673 -188.922 -75.356 -13.6 -207.2 -47.1
6.510 6.508 -30.673 -188.922 -75.356 -13.6 -207.2 -47.1
6.520 6.518 -29.193 -188.523 -77.859 -13.6 -207.2 -47.1
6.530 6.528 -29.193 -188.523 -77.859 -13.6 -207.2 -47.1
6.539 6.538 -26.332 -189.622 -80.034 -13.6 -207.2 -47.1
6.549 6.548 -26.332 -189.622 -80.034 -13.6 -207.2 -47.1
6.559 6.558 -24.057 -191.257 -81.910995 -13.6 -207.2 -47.1
6.569 6.568 -24.057 -191.257 -81.910995 -13.6 -207.2 -47.1
6.579 6.578 -19.856 -192.739 -82.186 -13.6 -207.2 -47.1
6.589 6.588 -19.856 -192.739 -82.186 -13.6 -207.2 -47.1
6.599 6.598 -16.997 -192.5 -83.731 -13.6 -207.2 -47.1
6.609 6.608 -16.997 -192.5 -83.731 -13.6 -207.2 -47.1
6.619 6.618 -13.592 -192.289 -84.649994 -13.6 -207.2 -47.1
6.629 6.628 -13.592 -192.289 -84.649994 -13.6 -207.2 -47.1
6.639 6.638 -9.129 -192.612 -83.981 -13.6 -207.2 -47.1
6.649 6.648 -9.129 -192.612 -83.981 -13.6 -207.2 -47.1
6.659 6.658 -1.2990007 -194.073 -83.612 -13.6 -207.2 -47.1
6.669 6.668 -1.2990007 -194.073 -83.612 -13.6 -207.2 -47.1
6.679 6.678 4.4109993 -197.63 -80.114 -13.6 -207.2 -47.1
6.689 6.688 4.4109993 -197.63 -80.114 -13.6 -207.2 -47.1
6.699 6.698 12.323 -200.886 -74.735 -13.6 -207.2 -47.1
6.709 6.708 12.323 -200.886 -74.735 -13.6 -207.2 -47.1
6.720 6.718 19.04 -204.02501 -67.187004 -14.0 -207.3 -47.4
6.729 6.728 19.04 -204.02501 -67.187004 -14.0 -207.3 -47.4
6.739 6.738 21.900002 -208.811 -62.177002 -14.0 -207.3 -47.4
6.749 6.748 21.900002 -208.811 -62.177002 -14.0 -207.3 -47.4
6.759 6.758 22.414001 -213.20401 -53.123 -14.0 -207.3 -47.4
6.769 6.768 22.414001 -213.20401 -53.123 -14.0 -207.3 -47.4
6.779 6.778 21.154999 -219.697 -41.558002 -14.0 -207.3 -47.4
6.789 6.788 21.154999 -219.697 -41.558002 -14.0 -207.3 -47.4
6.799 6.798 17.226 -226.281 -34.073 -14.0 -207.3 -47.4
6.809 6.808 17.226 -226.281 -34.073 -14.0 -207.3 -47.4
6.819 6.818 8.315001 -231.526 -28.467001 -14.0 -207.3 -47.4
6.829 6.828 8.315001 -231.526 -28.467001 -14.0 -207.3 -47.4
6.839 6.838 1.1199999 -233.422 -22.845001 -14.0 -207.3 -47.4
6.849 6.848 1.1199999 -233.422 -22.845001 -14.0 -207.3 -47.4
6.859 6.858 -4.8599997 -233.40001 -19.398 -14.0 -207.3 -47.4
6.869 6.868 -4.8599997 -233.40001 -19.398 -14.0 -207.3 -47.4
6.880 6.878 -13.667 -232.558 -15.662001 -14.0 -207.3 -47.4
6.889 6.888 -13.667 -232.558 -15.662001 -14.0 -207.3 -47.4
6.899 6.898 -18.131 -231.102 -15.977001 -14.0 -207.3 -47.4
6.909 6.908 -18.131 -231.102 -15.977001 -14.0 -207.3 -47.4
6.920 6.918 -21.581 -229.017 -13.147999 -14.5 -207.5 -47.3
6.929 6.928 -21.581 -229.017 -13.147999 -14.5 -207.5 -47.3
6.939 6.938 -24.303001 -227.995 -15.657 -14.5 -207.5 -47.3
6.949 6.948 -24.303001 -227.995 -15.657 -14.5 -207.5 -47.3
6.959 6.958 -25.726 -227.357 -15.019001 -14.5 -207.5 -47.3
6.969 6.968 -25.726 -227.357 -15.019001 -14.5 -207.5 -47.3
6.980 6.978 -25.727001 -224.372 -13.737999 -14.5 -207.5 -47.3
6.989 6.988 -25.727001 -224.372 -13.737999 -14.5 -207.5 -47.3
6.999 6.998 -26.583 -221.073 -11.841999 -14.5 -207.5 -47.3
7.009 7.008 -26.583 -221.073 -11.841999 -14.5 -207.5 -47.3
7.019 7.018 -24.914 -215.1 -8.665001 -14.5 -207.5 -47.3
7.029 7.028 -24.914 -215.1 -8.665001 -14.5 -207.5 -47.3
7.039 7.038 -23.143 -208.041 -8.002998 -14.5 -207.5 -47.3
7.049 7.048 -23.143 -208.041 -8.002998 -14.5 -207.5 -47.3
7.059 7.058 -22.485 -201.486 -8.306999 -14.5 -207.5 -47.3
7.069 7.068 -22.485 -201.486 -8.306999 -14.5 -207.5 -47.3
7.079 7.078 -23.178001 -194.22299 -9.874001 -14.5 -207.5 -47.3
7.089 7.088 -23.178001 -194.22299 -9.874001 -14.5 -207.5 -47.3
7.099 7.098 -23.554 -187.913 -13.32 -14.5 -207.5 -47.3
7.109 7.108 -23.554 -187.913 -13.32 -14.5 -207.5 -47.3
7.120 7.118 -25.001999 -181.754 -18.356998 -14.5 -207.5 -47.3
7.129 7.128 -25.001999 -181.754 -18.356998 -14.5 -207.5 -47.3
7.140 7.138 -25.845001 -177.72101 -25.59 -14.5 -207.5 -47.3
7.149 7.148 -25.845001 -177.72101 -25.59 -14.5 -207.5 -47.3
7.159 7.158 -28.098999 -173.36 -32.819 -14.7 -207.5 -46.8
7.169 7.168 -28.098999 -173.36 -32.819 -14.7 -207.5 -46.8
7.179 7.178 -28.724998 -171.87 -39.106 -14.7 -207.5 -46.8
7.189 7.188 -28.724998 -171.87 -39.106 -14.7 -207.5 -46.8
7.199 7.198 -29.062 -171.521 -46.327 -14.7 -207.5 -46.8
7.209 7.208 -29.062 -171.521 -46.327 -14.7 -207.5 -46.8
7.219 7.218 -30.027 -171.91 -51.669 -14.7 -207.5 -46.8
7.229 7.228 -30.027 -171.91 -51.669 -14.7 -207.5 -46.8
7.239 7.238 -29.811 -173.577 -59.525 -14.7 -207.5 -46.8
7.249 7.248 -29.811 -173.577 -59.525 -14.7 -207.5 -46.8
7.259 7.258 -28.813 -175.273 -65.474 -14.7 -207.5 -46.8
7.269 7.268 -28.813 -175.273 -65.474 -14.7 -207.5 -46.8
7.279 7.278 -24.738998 -178.148 -71.099 -14.7 -207.5 -46.8
7.289 7.288 -24.738998 -178.148 -71.099 -14.7 -207.5 -46.8
7.299 7.298 -22.404 -179.562 -74.534 -14.7 -207.5 -46.8
7.309 7.308 -22.404 -179.562 -74.534 -14.7 -207.5 -46.8
7.320 7.318 -22.682 -180.379 -75.491 -14.7 -207.5 -46.8
7.329 7.328 -22.682 -180.379 -75.491 -14.7 -207.5 -46.8
7.339 7.338 -23.001 -182.051 -75.494 -14.7 -207.5 -46.8
7.349 7.348 -23.001 -182.051 -75.494 -14.7 -207.5 -46.8
7.359 7.358 -22.108 -182.321 -77.379 -14.7 -207.5 -46.8
7.369 7.368 -22.108 -182.321 -77.379 -14.7 -207.5 -46.8
7.379 7.378 -22.715 -182.013 -76.137 -14.7 -207.5 -46.8
7.389 7.388 -22.715 -182.013 -76.137 -14.7 -207.5 -46.8
7.399 7.398 -21.553 -180.791 -77.08 -14.7 -207.5 -46.8
7.410 7.408 -21.553 -180.791 -77.08 -14.7 -207.5 -46.8
7.419 7.418 -20.736 -180.461 -76.455 -14.7 -207.5 -46.8
7.429 7.428 -20.736 -180.461 -76.455 -14.7 -207.5 -46.8
7.439 7.438 -19.381 -179.328 -74.259995 -14.7 -207.5 -46.8
7.449 7.448 -19.381 -179.328 -74.259995 -14.7 -207.5 -46.8
7.459 7.458 -18.84 -178.147 -73.313995 -14.7 -207.5 -46.8
7.469 7.468 -18.84 -178.147 -73.313995 -14.7 -207.5 -46.8
7.480 7.478 -18.564 -176.816 -72.696 -14.7 -207.5 -46.8
7.489 7.488 -18.564 -176.816 -72.696 -14.7 -207.5 -46.8
7.499 7.498 -17.980999 -177.778 -73.951996 -14.7 -207.5 -46.8
7.510 7.508 -17.980999 -177.778 -73.951996 -14.7 -207.5 -46.8
7.519 7.518 -14.898 -177.432 -73.302 -14.7 -207.5 -46.8
7.530 7.528 -14.898 -177.432 -73.302 -14.7 -207.5 -46.8
7.539 7.538 -13.582 -175.658 -69.846 -14.7 -207.5 -46.8
7.549 7.548 -13.582 -175.658 -69.846 -14.7 -207.5 -46.8
7.559 7.558 -12.764 -174.827 -68.897 -14.7 -207.5 -46.8
7.569 7.568 -12.764 -174.827 -68.897 -14.7 -207.5 -46.8
7.580 7.578 -13.3619995 -173.69101 -67.346 -14.7 -207.5 -46.8
7.589 7.588 -13.3619995 -173.69101 -67.346 -14.7 -207.5 -46.8
7.599 7.598 -11.761 -172.242 -64.523 -14.9 -207.6 -46.9
7.609 7.608 -11.761 -172.242 -64.523 -14.9 -207.6 -46.9
7.619 7.618 -9.605 -171.125 -61.699 -14.9 -207.6 -46.9
7.629 7.628 -9.605 -171.125 -61.699 -14.9 -207.6 -46.9
7.639 7.638 -11.320999 -169.542 -51.454002 -14.9 -207.6 -46.9
7.649 7.648 -11.320999 -169.542 -51.454002 -14.9 -207.6 -46.9
7.659 7.658 -9.969 -170.09601 -42.171 -14.9 -207.6 -46.9
7.669 7.668 -9.969 -170.09601 -42.171 -14.9 -207.6 -46.9
7.679 7.678 -11.42 -172.634 -32.963 -14.9 -207.6 -46.9
7.689 7.688 -11.42 -172.634 -32.963 -14.9 -207.6 -46.9
7.699 7.698 -12.172 -175.082 -28.123999 -14.9 -208.1 -47.8
7.709 7.708 -12.172 -175.082 -28.123999 -14.9 -208.1 -47.8
7.719 7.718 -16.487 -177.671 -23.561998 -14.9 -208.1 -47.8
7.729 7.728 -16.487 -177.671 -23.561998 -14.9 -208.1 -47.8
7.739 7.738 -21.026 -180.72801 -21.084 -14.9 -208.1 -47.8
7.749 7.748 -21.026 -180.72801 -21.084 -14.9 -208.1 -47.8
7.759 7.758 -22.5 -183.929 -19.458 -14.9 -208.1 -47.8
7.769 7.768 -22.5 -183.929 -19.458 -14.9 -208.1 -47.8
7.780 7.778 -23.817 -188.703 -14.985001 -14.9 -208.1 -47.8
7.789 7.788 -23.817 -188.703 -14.985001 -14.9 -208.1 -47.8
7.799 7.798 -23.354 -192.919 -13.919998 -14.9 -208.1 -47.8
7.809 7.808 -23.354 -192.919 -13.919998 -14.9 -208.1 -47.8
7.819 7.818 -26.522 -196.85301 -12.265999 -14.9 -208.1 -47.8
7.829 7.828 -26.522 -196.85301 -12.265999 -14.9 -208.1 -47.8
7.840 7.838 -28.029999 -201.427 -11.233002 -15.4 -208.3 -47.5
7.849 7.848 -28.029999 -201.427 -11.233002 -15.4 -208.3 -47.5
7.859 7.858 -29.484 -206.63501 -12.099998 -15.4 -208.3 -47.5
7.869 7.868 -29.484 -206.63501 -12.099998 -15.4 -208.3 -47.5
7.879 7.878 -30.446 -211.738 -10.785999 -15.4 -208.3 -47.5
7.889 7.888 -30.446 -211.738 -10.785999 -15.4 -208.3 -47.5
7.899 7.898 -31.546 -215.90001 -13.563 -15.4 -208.3 -47.5
7.909 7.908 -31.546 -215.90001 -13.563 -15.4 -208.3 -47.5
7.919 7.918 -32.141 -220.597 -14.778999 -15.4 -208.3 -47.5
7.929 7.928 -32.141 -220.597 -14.778999 -15.4 -208.3 -47.5
7.939 7.938 -31.782 -224.034 -18.818 -15.4 -208.3 -47.5
7.949 7.948 -31.782 -224.034 -18.818 -15.4 -208.3 -47.5
7.959 7.958 -31.838 -227.08301 -18.791 -15.4 -208.3 -47.5
7.969 7.968 -31.838 -227.08301 -18.791 -15.4 -208.3 -47.5
7.979 7.978 -31.258999 -230.43001 -20.651 -15.4 -208.3 -47.5
7.989 7.988 -31.258999 -230.43001 -20.651 -15.4 -208.3 -47.5
7.999 7.998 -29.806 -234.71701 -24.379 -15.4 -208.3 -47.5
8.009 8.008 -29.806 -234.71701 -24.379 -15.4 -208.3 -47.5
8.019 8.018 -27.557999 -238.05301 -25.602 -15.4 -208.3 -47.5
8.030 8.028 -27.557999 -238.05301 -25.602 -15.4 -208.3 -47.5
8.039 8.038 -21.916 -242.363 -28.056 -15.4 -208.3 -47.5
8.049 8.048 -21.916 -242.363 -28.056 -15.4 -208.3 -47.5
8.059 8.058 -15.049 -244.75499 -32.706 -15.2 -207.9 -47.4
8.069 8.068 -15.049 -244.75499 -32.706 -15.2 -207.9 -47.4
8.079 8.078 -8.7560005 -246.50499 -36.733 -15.2 -207.9 -47.4
8.089 8.088 -8.7560005 -246.50499 -36.733 -15.2 -207.9 -47.4
8.099 8.098 -1.9139996 -245.72299 -48.296 -15.2 -207.9 -47.4
8.109 8.108 -1.9139996 -245.72299 -48.296 -15.2 -207.9 -47.4
8.119 8.118 1.8429995 -242.777 -59.576 -15.2 -207.9 -47.4
8.129 8.128 1.8429995 -242.777 -59.576 -15.2 -207.9 -47.4
8.140 8.138 2.948 -234.918 -73.078 -14.4 -207.9 -47.3
8.149 8.148 2.948 -234.918 -73.078 -14.4 -207.9 -47.3
8.159 8.158 -1.3839998 -224.47299 -82.865 -14.4 -207.9 -47.3
8.169 8.168 -1.3839998 -224.47299 -82.865 -14.4 -207.9 -47.3
8.179 8.178 -9.799 -212.818 -87.652 -14.4 -207.9 -47.3
8.189 8.188 -9.799 -212.818 -87.652 -14.4 -207.9 -47.3
8.199 8.198 -20.443 -206.345 -86.798004 -14.4 -207.9 -47.3
8.209 8.208 -20.443 -206.345 -86.798004 -14.4 -207.9 -47.3
8.219 8.218 -27.279 -208.935 -85.287994 -14.4 -207.9 -47.3
8.229 8.228 -27.279 -208.935 -85.287994 -14.4 -207.9 -47.3
8.239 8.238 -29.945 -214.54399 -83.75 -14.4 -207.9 -47.3
8.249 8.248 -29.945 -214.54399 -83.75 -14.4 -207.9 -47.3
8.259 8.258 -30.815 -218.39899 -84.707 -14.4 -207.9 -47.3
8.269 8.268 -30.815 -218.39899 -84.707 -14.4 -207.9 -47.3
8.280 8.278 -32.956 -221.379 -80.647995 -14.4 -207.9 -47.3
8.289 8.288 -32.956 -221.379 -80.647995 -14.4 -207.9 -47.3
8.299 8.298 -34.518997 -225.989 -77.848 -14.4 -207.9 -47.3
8.309 8.308 -34.518997 -225.989 -77.848 -14.4 -207.9 -47.3
8.319 8.318 -33.856 -230.29999 -73.764 -14.4 -207.9 -47.3
8.329 8.328 -33.856 -230.29999 -73.764 -14.4 -207.9 -47.3
8.340 8.338 -33.957 -233.37799 -71.886 -14.4 -207.9 -47.3
8.349 8.348 -33.957 -233.37799 -71.886 -14.4 -207.9 -47.3
8.359 8.358 -35.576 -238.54 -67.505 -14.4 -207.9 -47.3
8.369 8.368 -35.576 -238.54 -67.505 -14.4 -207.9 -47.3
8.379 8.378 -32.25 -239.90799 -66.221 -14.4 -207.9 -47.3
8.389 8.388 -32.25 -239.90799 -66.221 -14.4 -207.9 -47.3
8.400 8.398 -30.91 -241.11499 -64.651 -14.4 -207.9 -47.3
8.409 8.408 -30.91 -241.11499 -64.651 -14.4 -207.9 -47.3
8.419 8.418 -28.925 -242.271 -65.591 -14.4 -207.9 -47.3
8.429 8.428 -28.925 -242.271 -65.591 -14.4 -207.9 -47.3
8.439 8.438 -25.77 -243.703 -68.395996 -14.4 -207.9 -47.3
8.449 8.448 -25.77 -243.703 -68.395996 -14.4 -207.9 -47.3
8.459 8.458 -21.856998 -243.21199 -67.434 -14.4 -207.9 -47.3
8.468 8.468 -21.856998 -243.21199 -67.434 -14.4 -207.9 -47.3
8.479 8.478 -17.251999 -242.93599 -70.86 -14.4 -207.9 -47.3
8.489 8.488 -17.251999 -242.93599 -70.86 -14.4 -207.9 -47.3
8.499 8.498 -10.969999 -241.84 -73.958 -14.4 -207.9 -47.3
8.509 8.508 -10.969999 -241.84 -73.958 -14.4 -207.9 -47.3
8.519 8.518 -3.2799997 -237.56999 -76.104996 -14.4 -207.9 -47.3
8.529 8.528 -3.2799997 -237.56999 -76.104996 -14.4 -207.9 -47.3
8.539 8.538 5.3949995 -232.418 -73.882 -14.3 -208.8 -48.5
8.549 8.548 5.3949995 -232.418 -73.882 -14.3 -208.8 -48.5
8.559 8.558 13.814 -226.24901 -72.264 -14.8 -208.8 -48.0
8.569 8.568 13.814 -226.24901 -72.264 -14.8 -208.8 -48.0
8.579 8.578 20.510002 -218.144 -67.547 -14.8 -208.8 -48.0
8.589 8.588 20.510002 -218.144 -67.547 -14.8 -208.8 -48.0
8.599 8.598 23.766003 -211.104 -60.359 -14.8 -208.8 -48.0
8.609 8.608 23.766003 -211.104 -60.359 -14.8 -208.8 -48.0
8.619 8.618 25.691002 -202.686 -54.414 -14.8 -208.8 -48.0
8.629 8.628 25.691002 -202.686 -54.414 -14.8 -208.8 -48.0
8.639 8.638 23.375 -194.802 -46.922 -14.8 -208.8 -48.0
8.649 8.648 23.375 -194.802 -46.922 -14.8 -208.8 -48.0
8.659 8.658 19.911 -187.57901 -39.416 -14.8 -208.8 -48.0
8.669 8.668 19.911 -187.57901 -39.416 -14.8 -208.8 -48.0
8.679 8.678 11.7300005 -180.994 -33.814 -14.8 -208.8 -48.0
8.689 8.688 11.7300005 -180.994 -33.814 -14.8 -208.8 -48.0
8.699 8.698 3.8580008 -174.84201 -30.373 -14.8 -208.8 -48.0
8.709 8.708 3.8580008 -174.84201 -30.373 -14.8 -208.8 -48.0
8.719 8.718 -6.7940006 -172.828 -29.786 -14.8 -208.8 -48.0
8.729 8.728 -6.7940006 -172.828 -29.786 -14.8 -208.8 -48.0
8.739 8.738 -19.709 -171.149 -29.848999 -13.6 -208.6 -48.3
8.749 8.748 -19.709 -171.149 -29.848999 -13.6 -208.6 -48.3
8.759 8.758 -25.796001 -171.876 -33.948997 -13.6 -208.6 -48.3
8.769 8.768 -25.796001 -171.876 -33.948997 -13.6 -208.6 -48.3
8.779 8.778 -28.26 -171.47202 -36.459 -13.6 -208.6 -48.3
8.789 8.788 -28.26 -171.47202 -36.459 -13.6 -208.6 -48.3
8.799 8.798 -30.333 -171.145 -42.433 -13.6 -208.6 -48.3
8.809 8.808 -30.333 -171.145 -42.433 -13.6 -208.6 -48.3
8.819 8.818 -30.735 -171.675 -48.086 -13.6 -208.6 -48.3
8.829 8.828 -30.735 -171.675 -48.086 -13.6 -208.6 -48.3
8.839 8.838 -33.214 -172.794 -50.294 -13.6 -208.6 -48.3
8.849 8.848 -33.214 -172.794 -50.294 -13.6 -208.6 -48.3
8.859 8.858 -32.779 -173.656 -55.953 -13.6 -208.6 -48.3
8.869 8.868 -32.779 -173.656 -55.953 -13.6 -208.6 -48.3
8.879 8.878 -31.835001 -174.391 -59.398 -13.6 -208.6 -48.3
8.889 8.888 -31.835001 -174.391 -59.398 -13.6 -208.6 -48.3
8.899 8.898 -30.533 -175.42401 -65.369 -13.6 -208.6 -48.3
8.909 8.908 -30.533 -175.42401 -65.369 -13.6 -208.6 -48.3
8.919 8.918 -28.772 -176.517 -68.181 -13.6 -208.6 -48.3
8.929 8.928 -28.772 -176.517 -68.181 -13.6 -208.6 -48.3
8.939 8.938 -27.12 -176.856 -66.917 -13.6 -208.6 -48.3
8.949 8.948 -27.12 -176.856 -66.917 -13.6 -208.6 -48.3
8.959 8.958 -25.893002 -176.767 -70.046 -13.6 -208.6 -48.3
8.969 8.968 -25.893002 -176.767 -70.046 -13.6 -208.6 -48.3
8.979 8.978 -25.355 -177.453 -69.416 -14.0 -208.5 -48.0
8.989 8.988 -25.355 -177.453 -69.416 -14.0 -208.5 -48.0
8.999 8.998 -24.237999 -176.768 -68.768 -14.0 -208.5 -48.0
9.009 9.008 -24.237999 -176.768 -68.768 -14.0 -208.5 -48.0
9.019 9.018 -21.074 -175.875 -70.315 -14.0 -208.5 -48.0
9.029 9.028 -21.074 -175.875 -70.315 -14.0 -208.5 -48.0
9.039 9.038 -19.917 -175.84601 -70.935 -14.0 -208.5 -48.0
9.049 9.048 -19.917 -175.84601 -70.935 -14.0 -208.5 -48.0
9.059 9.058 -17.074 -176.81 -72.159 -14.0 -208.5 -48.0
9.069 9.068 -17.074 -176.81 -72.159 -14.0 -208.5 -48.0
9.079 9.078 -15.067 -178.426 -74.024 -14.0 -208.5 -48.0
9.089 9.088 -15.067 -178.426 -74.024 -14.0 -208.5 -48.0
9.099 9.098 -11.042 -182.972 -78.995 -14.0 -208.5 -48.0
9.109 9.108 -11.042 -182.972 -78.995 -14.0 -208.5 -48.0
9.119 9.118 -9.32 -187.061 -81.792 -13.7 -208.2 -48.3
9.129 9.128 -9.32 -187.061 -81.792 -13.7 -208.2 -48.3
9.140 9.138 -11.275 -191.683 -84.287994 -13.7 -208.2 -48.3
9.150 9.148 -11.275 -191.683 -84.287994 -13.7 -208.2 -48.3
9.160 9.158 -10.209 -195.833 -84.575 -13.7 -208.2 -48.3
9.169 9.168 -10.209 -195.833 -84.575 -13.7 -208.2 -48.3
9.179 9.178 -11.330999 -199.606 -86.766 -13.7 -208.2 -48.3
9.189 9.188 -11.330999 -199.606 -86.766 -13.7 -208.2 -48.3
9.199 9.198 -8.356 -201.622 -84.852 -13.7 -208.2 -48.3
9.209 9.208 -8.356 -201.622 -84.852 -13.7 -208.2 -48.3
9.219 9.218 -4.469 -204.42099 -85.757996 -13.7 -208.2 -48.3
9.229 9.228 -4.469 -204.42099 -85.757996 -13.7 -208.2 -48.3
9.239 9.238 -1.4390001 -208.385 -86.371994 -13.7 -208.2 -48.3
9.249 9.248 -1.4390001 -208.385 -86.371994 -13.7 -208.2 -48.3
9.259 9.258 0.9549999 -211.92 -84.812 -13.7 -208.2 -48.3
9.268 9.268 0.9549999 -211.92 -84.812 -13.7 -208.2 -48.3
9.279 9.278 2.821 -214.312 -82.951996 -13.7 -208.2 -48.3
9.289 9.288 2.821 -214.312 -82.951996 -13.7 -208.2 -48.3
9.299 9.298 4.9420004 -217.54599 -80.778 -13.7 -208.2 -48.3
9.309 9.308 4.9420004 -217.54599 -80.778 -13.7 -208.2 -48.3
9.319 9.318 8.967999 -221.494 -76.713 -13.7 -208.2 -48.3
9.329 9.328 8.967999 -221.494 -76.713 -13.7 -208.2 -48.3
9.340 9.338 12.681001 -224.82599 -70.777 -13.7 -208.2 -48.3
9.349 9.348 12.681001 -224.82599 -70.777 -13.7 -208.2 -48.3
9.359 9.358 15.195 -229.398 -62.633 -14.4 -208.5 -47.1
9.369 9.368 15.195 -229.398 -62.633 -14.4 -208.5 -47.1
9.379 9.378 13.4470005 -235.716 -52.64 -14.4 -208.5 -47.1
9.389 9.388 13.4470005 -235.716 -52.64 -14.4 -208.5 -47.1
9.399 9.398 7.278 -242.0 -45.161 -14.4 -208.5 -47.1
9.409 9.408 7.278 -242.0 -45.161 -14.4 -208.5 -47.1
9.419 9.418 -1.8050003 -246.204 -42.08 -14.3 -208.5 -48.0
9.429 9.428 -1.8050003 -246.204 -42.08 -14.3 -208.5 -48.0
9.439 9.438 -11.127 -247.687 -40.246 -14.3 -208.5 -48.0
9.449 9.448 -11.127 -247.687 -40.246 -14.3 -208.5 -48.0
9.459 9.458 -24.736 -243.90399 -34.683 -14.3 -208.5 -48.0
9.469 9.468 -24.736 -243.90399 -34.683 -14.3 -208.5 -48.0
9.479 9.478 -32.139 -240.241 -29.995 -14.3 -208.5 -48.0
9.489 9.488 -32.139 -240.241 -29.995 -14.3 -208.5 -48.0
9.499 9.498 -36.684002 -236.16 -27.178 -14.3 -208.5 -48.0
9.509 9.508 -36.684002 -236.16 -27.178 -14.3 -208.5 -48.0
9.519 9.518 -36.944 -234.332 -27.469 -14.3 -208.5 -48.0
9.529 9.528 -36.944 -234.332 -27.469 -14.3 -208.5 -48.0
9.539 9.538 -36.716 -232.23 -25.243 -14.3 -208.5 -48.0
9.549 9.548 -36.716 -232.23 -25.243 -14.3 -208.5 -48.0
9.560 9.558 -36.229 -230.303 -22.074 -14.3 -208.5 -48.0
9.569 9.568 -36.229 -230.303 -22.074 -14.3 -208.5 -48.0
9.579 9.578 -36.287 -226.357 -18.905 -14.3 -208.5 -48.0
9.589 9.588 -36.287 -226.357 -18.905 -14.3 -208.5 -48.0
9.599 9.598 -36.323 -221.404 -15.744001 -14.3 -208.5 -47.4
9.609 9.608 -36.323 -221.404 -15.744001 -14.3 -208.5 -47.4
9.619 9.618 -34.621 -213.578 -12.884003 -14.3 -208.5 -47.4
9.629 9.628 -34.621 -213.578 -12.884003 -14.3 -208.5 -47.4
9.639 9.638 -33.742 -207.058 -11.287003 -14.3 -208.5 -47.4
9.649 9.648 -33.742 -207.058 -11.287003 -14.3 -208.5 -47.4
9.659 9.658 -32.198 -199.284 -12.512001 -14.3 -208.5 -47.4
9.669 9.668 -32.198 -199.284 -12.512001 -14.3 -208.5 -47.4
9.679 9.678 -30.363998 -192.023 -14.056 -14.3 -208.5 -47.4
9.689 9.688 -30.363998 -192.023 -14.056 -14.3 -208.5 -47.4
9.699 9.698 -29.385 -186.419 -16.236002 -14.3 -208.5 -47.4
9.709 9.708 -29.385 -186.419 -16.236002 -14.3 -208.5 -47.4
9.719 9.718 -30.324001 -182.273 -20.634 -14.3 -208.5 -47.4
9.729 9.728 -30.324001 -182.273 -20.634 -14.3 -208.5 -47.4
9.739 9.738 -30.387001 -178.444 -26.285002 -14.3 -208.5 -47.4
9.749 9.748 -30.387001 -178.444 -26.285002 -14.3 -208.5 -47.4
9.759 9.758 -32.201 -175.487 -30.377 -14.3 -208.5 -47.4
9.769 9.768 -32.201 -175.487 -30.377 -14.3 -208.5 -47.4
9.779 9.778 -33.149002 -174.19 -35.721 -14.3 -208.5 -47.4
9.789 9.788 -33.149002 -174.19 -35.721 -14.3 -208.5 -47.4
9.799 9.798 -33.749 -172.50099 -42.954 -14.0 -207.9 -47.1
9.809 9.808 -33.749 -172.50099 -42.954 -14.0 -207.9 -47.1
9.819 9.818 -32.502 -171.56099 -46.392998 -14.0 -207.9 -47.1
9.829 9.828 -32.502 -171.56099 -46.392998 -14.0 -207.9 -47.1
9.839 9.838 -29.586 -170.463 -49.503998 -14.0 -207.9 -47.1
9.849 9.848 -29.586 -170.463 -49.503998 -14.0 -207.9 -47.1
9.859 9.858 -27.23 -170.54001 -52.947998 -14.5 -208.3 -47.8
9.869 9.868 -27.23 -170.54001 -52.947998 -14.5 -208.3 -47.8
9.879 9.878 -24.564 -169.917 -57.003998 -14.5 -208.3 -47.8
9.889 9.888 -24.564 -169.917 -57.003998 -14.5 -208.3 -47.8
9.899 9.898 -21.631 -170.80501 -61.377 -14.5 -208.3 -47.8
9.909 9.908 -21.631 -170.80501 -61.377 -14.5 -208.3 -47.8
9.919 9.918 -20.416 -171.712 -65.136 -14.5 -208.3 -47.8
9.929 9.928 -20.416 -171.712 -65.136 -14.5 -208.3 -47.8
9.940 9.938 -18.338 -173.938 -69.522 -14.5 -208.3 -47.8
9.949 9.948 -18.338 -173.938 -69.522 -14.5 -208.3 -47.8
9.959 9.958 -17.424 -176.035 -72.964 -14.5 -208.3 -47.8
9.969 9.968 -17.424 -176.035 -72.964 -14.5 -208.3 -47.8
9.979 9.978 -14.314 -178.31801 -74.83 -14.5 -208.3 -47.8
9.989 9.988 -14.314 -178.31801 -74.83 -14.5 -208.3 -47.8
9.999 9.998 -14.262 -180.758 -77.660995 -14.5 -208.3 -47.8
10.009 10.008 -14.262 -180.758 -77.660995 -14.5 -208.3 -47.8
10.019 10.018 -11.429 -183.375 -79.53 -14.5 -208.3 -47.8
10.029 10.028 -11.429 -183.375 -79.53 -14.5 -208.3 -47.8
10.040 10.038 -10.846 -186.0 -81.409 -14.5 -208.3 -47.8
10.049 10.048 -10.846 -186.0 -81.409 -14.5 -208.3 -47.8
10.059 10.058 -8.333 -189.975 -82.658005 -14.5 -208.3 -47.8
10.069 10.068 -8.333 -189.975 -82.658005 -14.5 -208.3 -47.8
10.079 10.078 -7.763 -195.11101 -84.861 -14.5 -208.3 -47.8
10.089 10.088 -7.763 -195.11101 -84.861 -14.5 -208.3 -47.8
10.099 10.098 -6.923 -197.938 -85.806 -14.5 -208.3 -47.8
10.109 10.108 -6.923 -197.938 -85.806 -14.5 -208.3 -47.8
10.119 10.118 -6.619 -200.735 -87.386 -14.5 -208.3 -47.8
10.129 10.128 -6.619 -200.735 -87.386 -14.5 -208.3 -47.8
10.140 10.138 -6.385 -205.248 -87.716 -14.5 -208.3 -47.8
10.149 10.148 -6.385 -205.248 -87.716 -14.5 -208.3 -47.8
10.160 10.158 -5.3479996 -209.295 -86.457 -14.5 -208.3 -47.8
10.169 10.168 -5.3479996 -209.295 -86.457 -14.5 -208.3 -47.8
10.179 10.178 -5.0249996 -211.417 -88.672 -14.5 -208.3 -47.8
10.189 10.188 -5.0249996 -211.417 -88.672 -14.5 -208.3 -47.8
10.199 10.198 -8.975 -213.093 -88.713 -14.5 -208.3 -47.8
10.209 10.208 -8.975 -213.093 -88.713 -14.5 -208.3 -47.8
10.219 10.218 -12.3220005 -212.25 -89.063 -14.5 -208.3 -47.8
10.229 10.228 -12.3220005 -212.25 -89.063 -14.5 -208.3 -47.8
10.239 10.238 -14.547 -211.408 -89.399994 -14.5 -208.3 -47.8
10.250 10.248 -14.547 -211.408 -89.399994 -14.5 -208.3 -47.8
10.259 10.258 -13.949 -211.042 -90.035 -14.5 -208.3 -47.8
10.269 10.268 -13.949 -211.042 -90.035 -14.5 -208.3 -47.8
10.280 10.278 -14.748 -208.52 -90.361 -14.5 -208.3 -47.8
10.289 10.288 -14.748 -208.52 -90.361 -14.5 -208.3 -47.8
10.300 10.298 -13.341 -206.851 -89.735 -14.5 -208.4 -47.7
10.309 10.308 -13.341 -206.851 -89.735 -14.5 -208.4 -47.7
10.319 10.318 -13.625 -205.85399 -89.121 -14.5 -208.4 -47.7
10.329 10.328 -13.625 -205.85399 -89.121 -14.5 -208.4 -47.7
10.340 10.338 -12.774 -203.853 -88.497 -14.5 -208.4 -47.7
10.349 10.348 -12.774 -203.853 -88.497 -14.5 -208.4 -47.7
10.359 10.358 -10.789 -202.665 -88.8 -14.5 -208.4 -47.7
10.370 10.368 -10.789 -202.665 -88.8 -14.5 -208.4 -47.7
10.379 10.378 -8.526 -202.95299 -90.034 -14.5 -208.4 -47.7
10.389 10.388 -8.526 -202.95299 -90.034 -14.5 -208.4 -47.7
10.399 10.398 -5.809 -204.62799 -88.774 -14.5 -208.4 -47.7
10.409 10.408 -5.809 -204.62799 -88.774 -14.5 -208.4 -47.7
10.419 10.418 -2.5019999 -206.26799 -88.762 -14.5 -208.4 -47.7
10.429 10.428 -2.5019999 -206.26799 -88.762 -14.5 -208.4 -47.7
10.440 10.438 -0.4630003 -209.48 -84.742004 -14.5 -208.4 -47.7
10.449 10.448 -0.4630003 -209.48 -84.742004 -14.5 -208.4 -47.7
10.460 10.458 1.6879997 -213.066 -85.356 -14.5 -208.4 -47.7
10.469 10.468 1.6879997 -213.066 -85.356 -14.5 -208.4 -47.7
10.479 10.478 2.893999 -218.34299 -82.92 -14.5 -208.4 -47.7
10.489 10.488 2.893999 -218.34299 -82.92 -14.5 -208.4 -47.7
10.499 10.498 5.2439995 -223.118 -81.401 -14.5 -208.4 -47.7
10.509 10.508 5.2439995 -223.118 -81.401 -14.5 -208.4 -47.7
10.519 10.518 3.4330006 -228.28099 -78.082 -14.5 -208.4 -47.7
10.529 10.528 3.4330006 -228.28099 -78.082 -14.5 -208.4 -47.7
10.539 10.538 1.7259998 -232.754 -77.194 -14.5 -208.4 -47.7
10.549 10.548 1.7259998 -232.754 -77.194 -14.5 -208.4 -47.7
10.559 10.558 -2.5860004 -239.215 -71.726 -14.5 -208.4 -47.7
10.569 10.568 -2.5860004 -239.215 -71.726 -14.5 -208.4 -47.7
10.579 10.578 -7.682 -243.76999 -67.425 -14.5 -208.4 -47.7
10.589 10.588 -7.682 -243.76999 -67.425 -14.5 -208.4 -47.7
10.599 10.598 -11.759 -246.267 -60.933 -14.5 -208.4 -47.7
10.609 10.608 -11.759 -246.267 -60.933 -14.5 -208.4 -47.7
10.619 10.618 -15.78 -247.866 -57.157 -14.5 -208.4 -47.7
10.629 10.628 -15.78 -247.866 -57.157 -14.5 -208.4 -47.7
10.639 10.638 -22.0 -248.624 -54.313 -14.5 -208.4 -47.7
10.649 10.648 -22.0 -248.624 -54.313 -14.5 -208.4 -47.7
10.659 10.658 -25.819 -248.081 -48.954002 -14.5 -208.4 -47.7
10.669 10.668 -25.819 -248.081 -48.954002 -14.5 -208.4 -47.7
10.679 10.678 -29.768 -246.26799 -39.839 -14.5 -208.4 -47.7
10.689 10.688 -29.768 -246.26799 -39.839 -14.5 -208.4 -47.7
10.699 10.698 -31.707 -243.38899 -31.929 -14.6 -208.7 -47.9
10.709 10.708 -31.707 -243.38899 -31.929 -14.6 -208.7 -47.9
10.719 10.718 -32.505 -238.467 -23.997002 -14.6 -208.7 -47.9
10.729 10.728 -32.505 -238.467 -23.997002 -14.6 -208.7 -47.9
10.739 10.738 -31.86 -232.315 -16.363 -14.6 -208.7 -47.9
10.749 10.748 -31.86 -232.315 -16.363 -14.6 -208.7 -47.9
10.759 10.758 -29.400002 -224.717 -11.854 -14.6 -208.7 -47.9
10.769 10.768 -29.400002 -224.717 -11.854 -14.6 -208.7 -47.9
10.779 10.778 -27.185001 -216.91 -8.299 -14.6 -208.7 -47.9
10.789 10.788 -27.185001 -216.91 -8.299 -14.6 -208.7 -47.9
10.799 10.798 -24.631 -209.383 -6.015003 -14.6 -208.7 -47.9
10.809 10.808 -24.631 -209.383 -6.015003 -14.6 -208.7 -47.9
10.819 10.818 -21.99 -200.297 -5.936001 -14.6 -208.7 -47.9
10.829 10.828 -21.99 -200.297 -5.936001 -14.6 -208.7 -47.9
10.839 10.838 -21.727001 -191.263 -10.608002 -14.6 -208.7 -47.9
10.849 10.848 -21.727001 -191.263 -10.608002 -14.6 -208.7 -47.9
10.859 10.858 -23.202 -184.261 -14.678001 -14.6 -208.7 -47.9
10.869 10.868 -23.202 -184.261 -14.678001 -14.6 -208.7 -47.9
10.880 10.878 -22.64 -177.367 -20.933002 -14.6 -208.7 -47.9
10.889 10.888 -22.64 -177.367 -20.933002 -14.6 -208.7 -47.9
10.899 10.898 -22.672 -173.32599 -27.525002 -14.6 -208.7 -47.9
10.909 10.908 -22.672 -173.32599 -27.525002 -14.6 -208.7 -47.9
10.919 10.918 -19.553001 -168.07199 -35.046 -14.6 -208.7 -47.9
10.930 10.928 -19.553001 -168.07199 -35.046 -14.6 -208.7 -47.9
10.939 10.938 -14.8220005 -166.547 -41.289 -14.6 -208.7 -47.9
10.949 10.948 -14.8220005 -166.547 -41.289 -14.6 -208.7 -47.9
10.959 10.958 -11.988001 -165.969 -50.707 -14.6 -208.7 -47.9
10.969 10.968 -11.988001 -165.969 -50.707 -14.6 -208.7 -47.9
10.979 10.978 -10.109 -167.81 -57.613003 -14.6 -208.7 -47.9
10.989 10.988 -10.109 -167.81 -57.613003 -14.6 -208.7 -47.9
10.999 10.998 -10.786 -170.995 -64.54 -14.6 -208.7 -47.9
11.009 11.008 -10.786 -170.995 -64.54 -14.6 -208.7 -47.9
11.020 11.018 -13.095 -175.832 -73.995 -14.6 -208.7 -47.9
11.029 11.028 -13.095 -175.832 -73.995 -14.6 -208.7 -47.9
11.039 11.038 -14.709001 -180.10199 -78.421005 -14.6 -208.7 -47.9
11.049 11.048 -14.709001 -180.10199 -78.421005 -14.6 -208.7 -47.9
11.059 11.058 -16.393 -184.601 -80.627 -14.6 -208.7 -47.9
11.069 11.068 -16.393 -184.601 -80.627 -14.6 -208.7 -47.9
11.079 11.078 -15.242001 -187.729 -82.825 -14.6 -208.7 -47.9
11.089 11.088 -15.242001 -187.729 -82.825 -14.6 -208.7 -47.9
11.099 11.098 -13.555 -192.885 -85.013 -14.6 -208.7 -47.9
11.109 11.108 -13.555 -192.885 -85.013 -14.6 -208.7 -47.9
11.119 11.118 -11.599001 -196.887 -86.26601 -14.6 -208.7 -47.9
11.129 11.128 -11.599001 -196.887 -86.26601 -14.6 -208.7 -47.9
11.139 11.138 -10.149 -198.66 -88.455 -14.6 -208.7 -47.9
11.149 11.148 -10.149 -198.66 -88.455 -14.6 -208.7 -47.9
11.159 11.158 -8.799 -200.861 -87.502 -14.6 -208.7 -47.9
11.169 11.168 -8.799 -200.861 -87.502 -14.6 -208.7 -47.9
11.179 11.178 -7.3770003 -202.33499 -88.439 -14.6 -208.7 -47.9
11.189 11.188 -7.3770003 -202.33499 -88.439 -14.6 -208.7 -47.9
11.199 11.198 -4.642 -203.20999 -86.214005 -14.6 -208.7 -47.9
11.209 11.208 -4.642 -203.20999 -86.214005 -14.6 -208.7 -47.9
11.219 11.218 -0.41499996 -204.017 -86.505005 -14.6 -208.7 -47.9
11.229 11.228 -0.41499996 -204.017 -86.505005 -14.6 -208.7 -47.9
11.239 11.238 5.972 -205.548 -84.25101 -14.6 -208.7 -47.9
11.249 11.248 5.972 -205.548 -84.25101 -14.6 -208.7 -47.9
11.259 11.258 11.761999 -207.448 -80.755005 -14.6 -208.7 -47.9
11.269 11.268 11.761999 -207.448 -80.755005 -14.6 -208.7 -47.9
11.279 11.278 18.525 -209.953 -72.528 -14.6 -208.7 -47.9
11.289 11.288 18.525 -209.953 -72.528 -14.6 -208.7 -47.9
11.300 11.298 21.67 -212.955 -65.904 -14.6 -208.7 -47.9
11.309 11.308 21.67 -212.955 -65.904 -14.6 -208.7 -47.9
11.320 11.318 23.454 -218.451 -52.994003 -14.6 -208.7 -47.9
11.330 11.328 23.454 -218.451 -52.994003 -14.6 -208.7 -47.9
11.340 11.338 20.508001 -225.596 -42.65 -14.6 -208.7 -47.9
11.349 11.348 20.508001 -225.596 -42.65 -14.6 -208.7 -47.9
11.359 11.358 14.545 -230.528 -33.898003 -14.6 -208.7 -47.9
11.369 11.368 14.545 -230.528 -33.898003 -14.6 -208.7 -47.9
11.380 11.378 8.095999 -232.911 -26.717001 -14.6 -208.7 -47.9
11.389 11.388 8.095999 -232.911 -26.717001 -14.6 -208.7 -47.9
11.399 11.398 0.5949993 -231.92 -20.179 -14.6 -208.7 -47.9
11.409 11.408 0.5949993 -231.92 -20.179 -14.6 -208.7 -47.9
11.420 11.418 -7.3540006 -229.692 -16.469002 -14.6 -208.7 -47.9
11.430 11.428 -7.3540006 -229.692 -16.469002 -14.6 -208.7 -47.9
11.439 11.438 -14.75 -227.797 -13.378002 -14.6 -208.7 -47.9
11.449 11.448 -14.75 -227.797 -13.378002 -14.6 -208.7 -47.9
11.459 11.458 -20.948 -226.838 -12.796001 -14.6 -208.7 -47.9
11.469 11.468 -20.948 -226.838 -12.796001 -14.6 -208.7 -47.9
11.479 11.478 -22.628 -226.187 -12.798 -14.6 -208.7 -47.9
11.489 11.488 -22.628 -226.187 -12.798 -14.6 -208.7 -47.9
11.500 11.498 -23.992 -225.019 -13.743 -14.6 -208.7 -47.9
11.509 11.508 -23.992 -225.019 -13.743 -14.6 -208.7 -47.9
11.520 11.518 -28.198 -224.349 -14.389 -14.6 -208.7 -47.9
11.530 11.528 -28.198 -224.349 -14.389 -14.6 -208.7 -47.9
11.540 11.538 -29.605 -222.873 -14.080002 -14.6 -208.7 -47.9
11.549 11.548 -29.605 -222.873 -14.080002 -14.6 -208.7 -47.9
11.559 11.558 -30.695 -221.188 -14.704002 -14.6 -208.7 -47.9
11.570 11.568 -30.695 -221.188 -14.704002 -14.6 -208.7 -47.9
11.579 11.578 -31.804 -219.197 -14.702999 -16.2 -208.1 -48.0
11.589 11.588 -31.804 -219.197 -14.702999 -16.2 -208.1 -48.0
11.600 11.598 -30.705002 -217.041 -13.110001 -16.2 -208.1 -48.0
11.609 11.608 -30.705002 -217.041 -13.110001 -16.2 -208.1 -48.0
11.619 11.618 -31.812 -213.71 -12.471001 -16.2 -208.1 -48.0
11.629 11.628 -31.812 -213.71 -12.471001 -16.2 -208.1 -48.0
11.639 11.638 -31.705002 -207.317 -13.084999 -16.2 -208.1 -48.0
11.649 11.648 -31.705002 -207.317 -13.084999 -16.2 -208.1 -48.0
11.659 11.658 -32.035 -203.85301 -10.25 -16.2 -208.1 -48.0
11.669 11.668 -32.035 -203.85301 -10.25 -16.2 -208.1 -48.0
11.679 11.678 -28.28 -200.11101 -11.470001 -16.2 -208.1 -48.0
11.689 11.688 -28.28 -200.11101 -11.470001 -16.2 -208.1 -48.0
11.699 11.698 -23.958 -193.198 -11.7369995 -16.2 -208.1 -48.0
11.709 11.708 -23.958 -193.198 -11.7369995 -16.2 -208.1 -48.0
11.720 11.718 -20.699001 -187.07101 -14.219002 -16.2 -208.1 -48.0
11.729 11.728 -20.699001 -187.07101 -14.219002 -16.2 -208.1 -48.0
11.740 11.738 -18.235 -182.08 -18.906 -16.2 -208.1 -48.0
11.749 11.748 -18.235 -182.08 -18.906 -16.2 -208.1 -48.0
11.759 11.758 -15.177001 -175.56801 -23.899 -16.2 -208.1 -48.0
11.769 11.768 -15.177001 -175.56801 -23.899 -16.2 -208.1 -48.0
11.779 11.778 -12.022001 -171.145 -32.978 -16.2 -208.1 -48.0
11.789 11.788 -12.022001 -171.145 -32.978 -16.2 -208.1 -48.0
11.799 11.798 -9.499001 -169.103 -40.805 -15.8 -208.0 -48.1
11.809 11.808 -9.499001 -169.103 -40.805 -15.8 -208.0 -48.1
11.819 11.818 -5.137 -169.146 -45.461998 -15.8 -208.0 -48.1
11.829 11.828 -5.137 -169.146 -45.461998 -15.8 -208.0 -48.1
11.840 11.838 -2.712 -170.498 -52.022 -15.8 -208.0 -48.1
11.849 11.848 -2.712 -170.498 -52.022 -15.8 -208.0 -48.1
11.859 11.858 -0.0710001 -171.887 -56.697 -15.8 -208.0 -48.1
11.869 11.868 -0.0710001 -171.887 -56.697 -15.8 -208.0 -48.1
11.879 11.878 2.836999 -174.945 -61.376 -15.8 -208.0 -48.1
11.889 11.888 2.836999 -174.945 -61.376 -15.8 -208.0 -48.1
11.899 11.898 6.332 -179.306 -67.313995 -15.8 -208.0 -48.1
11.909 11.908 6.332 -179.306 -67.313995 -15.8 -208.0 -48.1
11.919 11.918 8.116 -184.694 -72.642 -15.8 -208.0 -48.1
11.929 11.928 8.116 -184.694 -72.642 -15.8 -208.0 -48.1
11.940 11.938 8.189 -191.274 -77.695 -15.8 -208.0 -48.1
11.949 11.948 8.189 -191.274 -77.695 -15.8 -208.0 -48.1
11.959 11.958 5.655999 -198.582 -80.88 -15.8 -208.0 -48.1
11.969 11.968 5.655999 -198.582 -80.88 -15.8 -208.0 -48.1
11.979 11.978 1.7419996 -206.226 -84.714 -15.8 -208.0 -48.1
11.989 11.988 1.7419996 -206.226 -84.714 -15.8 -208.0 -48.1
12.000 11.998 -2.7519999 -211.569 -86.667 -14.7 -207.4 -48.3
12.009 12.008 -2.7519999 -211.569 -86.667 -14.7 -207.4 -48.3
12.019 12.018 -9.849 -217.48 -87.067 -14.7 -207.4 -48.3
12.030 12.028 -9.849 -217.48 -87.067 -14.7 -207.4 -48.3
12.039 12.038 -12.709 -219.678 -86.798004 -14.7 -207.4 -48.3
12.049 12.048 -12.709 -219.678 -86.798004 -14.7 -207.4 -48.3
12.059 12.058 -15.537 -220.704 -86.852 -14.7 -207.4 -48.3
12.069 12.068 -15.537 -220.704 -86.852 -14.7 -207.4 -48.3
12.080 12.078 -15.0 -221.72899 -86.237 -14.7 -207.4 -48.3
12.089 12.088 -15.0 -221.72899 -86.237 -14.7 -207.4 -48.3
12.099 12.098 -16.101 -222.377 -87.518 -14.7 -207.4 -48.3
12.109 12.108 -16.101 -222.377 -87.518 -14.7 -207.4 -48.3
12.119 12.118 -16.675 -222.05899 -86.908005 -14.7 -207.4 -48.3
12.129 12.128 -16.675 -222.05899 -86.908005 -14.7 -207.4 -48.3
12.140 12.138 -17.239 -221.075 -86.306 -14.7 -207.4 -48.3
12.149 12.148 -17.239 -221.075 -86.306 -14.7 -207.4 -48.3
12.159 12.158 -18.269 -219.166 -88.526 -14.7 -207.4 -48.3
12.169 12.168 -18.269 -219.166 -88.526 -14.7 -207.4 -48.3
12.179 12.178 -17.639 -215.288 -88.845 -14.7 -207.4 -48.3
12.189 12.188 -17.639 -215.288 -88.845 -14.7 -207.4 -48.3
12.199 12.198 -18.431 -209.918 -88.239 -14.7 -207.4 -48.3
12.209 12.208 -18.431 -209.918 -88.239 -14.7 -207.4 -48.3
12.219 12.218 -17.243 -205.54399 -88.238 -14.7 -207.4 -48.3
12.229 12.228 -17.243 -205.54399 -88.238 -14.7 -207.4 -48.3
12.239 12.238 -14.625999 -201.64899 -89.169 -14.7 -207.4 -48.3
12.249 12.248 -14.625999 -201.64899 -89.169 -14.7 -207.4 -48.3
12.259 12.258 -11.861 -200.84299 -86.951996 -14.7 -207.4 -48.3
12.269 12.268 -11.861 -200.84299 -86.951996 -14.7 -207.4 -48.3
12.279 12.278 -4.191 -200.741 -89.419 -14.7 -207.4 -48.3
12.289 12.288 -4.191 -200.741 -89.419 -14.7 -207.4 -48.3
12.299 12.298 0.43700027 -201.66199 -85.312 -14.7 -207.4 -48.3
12.309 12.308 0.43700027 -201.66199 -85.312 -14.7 -207.4 -48.3
12.319 12.318 5.4119997 -203.51399 -83.718 -14.7 -207.4 -48.3
12.329 12.328 5.4119997 -203.51399 -83.718 -14.7 -207.4 -48.3
12.340 12.338 9.523 -206.398 -82.132 -14.7 -208.0 -48.6
12.349 12.348 9.523 -206.398 -82.132 -14.7 -208.0 -48.6
12.360 12.358 11.074 -210.929 -80.58 -14.7 -208.0 -48.6
12.369 12.368 11.074 -210.929 -80.58 -14.7 -208.0 -48.6
12.380 12.378 12.265 -217.834 -77.783 -14.7 -208.0 -48.6
12.389 12.388 12.265 -217.834 -77.783 -14.7 -208.0 -48.6
12.399 12.398 12.459001 -221.991 -77.493 -14.7 -208.0 -48.6
12.409 12.408 12.459001 -221.991 -77.493 -14.7 -208.0 -48.6
12.420 12.418 10.590001 -227.213 -74.118996 -14.7 -208.0 -48.6
12.430 12.428 10.590001 -227.213 -74.118996 -14.7 -208.0 -48.6
12.439 12.438 9.603 -232.732 -71.985 -14.7 -208.0 -48.6
12.449 12.448 9.603 -232.732 -71.985 -14.7 -208.0 -48.6
12.459 12.458 6.0619993 -238.646 -68.014 -14.7 -208.0 -48.6
12.469 12.468 6.0619993 -238.646 -68.014 -14.7 -208.0 -48.6
12.479 12.478 2.2270002 -243.121 -62.490997 -14.7 -208.0 -48.6
12.489 12.488 2.2270002 -243.121 -62.490997 -14.7 -208.0 -48.6
12.499 12.498 -1.9449997 -247.047 -54.458 -14.7 -208.0 -48.6
12.509 12.508 -1.9449997 -247.047 -54.458 -14.7 -208.0 -48.6
12.519 12.518 -6.6589994 -248.682 -46.366997 -14.7 -208.0 -48.6
12.529 12.528 -6.6589994 -248.682 -46.366997 -14.7 -208.0 -48.6
12.539 12.538 -9.918 -248.13701 -40.388 -14.8 -208.6 -48.8
12.549 12.548 -9.918 -248.13701 -40.388 -14.8 -208.6 -48.8
12.559 12.558 -13.534 -246.461 -31.557999 -14.8 -208.6 -48.8
12.569 12.568 -13.534 -246.461 -31.557999 -14.8 -208.6 -48.8
12.579 12.578 -15.365 -241.18301 -24.883999 -14.8 -208.6 -48.8
12.589 12.588 -15.365 -241.18301 -24.883999 -14.8 -208.6 -48.8
12.599 12.598 -15.834001 -234.73901 -16.619999 -14.8 -208.6 -48.8
12.609 12.608 -15.834001 -234.73901 -16.619999 -14.8 -208.6 -48.8
12.619 12.618 -13.386 -226.677 -11.158001 -14.8 -208.6 -48.8
12.629 12.628 -13.386 -226.677 -11.158001 -14.8 -208.6 -48.8
12.639 12.638 -6.8640003 -216.97101 -9.132 -14.8 -208.6 -48.8
12.649 12.648 -6.8640003 -216.97101 -9.132 -14.8 -208.6 -48.8
12.659 12.658 -1.8950005 -206.33301 -10.596001 -14.8 -208.6 -48.8
12.669 12.668 -1.8950005 -206.33301 -10.596001 -14.8 -208.6 -48.8
12.679 12.678 0.88099957 -193.823 -13.028999 -14.8 -208.6 -48.8
12.689 12.688 0.88099957 -193.823 -13.028999 -14.8 -208.6 -48.8
12.699 12.698 -1.8030005 -181.042 -20.233 -14.8 -208.6 -48.8
12.709 12.708 -1.8030005 -181.042 -20.233 -14.8 -208.6 -48.8
12.719 12.718 -6.227 -173.606 -28.733 -14.8 -208.6 -48.8
12.729 12.728 -6.227 -173.606 -28.733 -14.8 -208.6 -48.8
12.739 12.738 -4.0620003 -171.945 -34.032997 -13.7 -208.8 -48.1
12.749 12.748 -4.0620003 -171.945 -34.032997 -13.7 -208.8 -48.1
12.759 12.758 -1.9239998 -170.614 -38.718 -13.7 -208.8 -48.1
12.769 12.768 -1.9239998 -170.614 -38.718 -13.7 -208.8 -48.1
12.779 12.778 -0.37099934 -170.82901 -43.098 -13.7 -208.8 -48.1
12.789 12.788 -0.37099934 -170.82901 -43.098 -13.7 -208.8 -48.1
12.799 12.798 2.0880003 -170.649 -49.995 -13.7 -208.8 -48.1
12.809 12.808 2.0880003 -170.649 -49.995 -13.7 -208.8 -48.1
12.819 12.818 2.8569994 -172.808 -57.53 -13.7 -208.8 -48.1
12.829 12.828 2.8569994 -172.808 -57.53 -13.7 -208.8 -48.1
12.839 12.838 3.8639994 -175.685 -63.814 -13.7 -208.8 -48.1
12.849 12.848 3.8639994 -175.685 -63.814 -13.7 -208.8 -48.1
12.859 12.858 3.4700003 -176.892 -69.473 -13.7 -208.8 -48.1
12.869 12.868 3.4700003 -176.892 -69.473 -13.7 -208.8 -48.1
12.880 12.878 1.8319998 -179.68001 -72.311 -13.7 -208.8 -48.1
12.889 12.888 1.8319998 -179.68001 -72.311 -13.7 -208.8 -48.1
12.899 12.898 1.6330004 -183.61101 -76.711 -13.7 -208.8 -48.1
12.909 12.908 1.6330004 -183.61101 -76.711 -13.7 -208.8 -48.1
12.919 12.918 0.8369999 -186.895 -79.861 -13.7 -208.8 -48.1
12.929 12.928 0.8369999 -186.895 -79.861 -13.7 -208.8 -48.1
12.940 12.938 -0.25799942 -192.048 -82.703995 -13.7 -208.8 -48.1
12.949 12.948 -0.25799942 -192.048 -82.703995 -13.7 -208.8 -48.1
12.960 12.958 -2.467 -197.51001 -86.811 -13.7 -208.8 -48.1
12.969 12.968 -2.467 -197.51001 -86.811 -13.7 -208.8 -48.1
12.979 12.978 -5.3429995 -201.54001 -86.835 -13.7 -208.8 -48.1
12.989 12.988 -5.3429995 -201.54001 -86.835 -13.7 -208.8 -48.1
12.999 12.998 -6.48 -205.711 -88.419 -13.7 -208.8 -48.1
13.009 13.008 -6.48 -205.711 -88.419 -13.7 -208.8 -48.1
13.019 13.018 -9.108 -210.785 -87.817 -13.7 -208.8 -48.1
13.029 13.028 -9.108 -210.785 -87.817 -13.7 -208.8 -48.1
13.039 13.038 -10.554 -212.649 -87.51199 -13.7 -208.8 -48.1
13.049 13.048 -10.554 -212.649 -87.51199 -13.7 -208.8 -48.1
13.059 13.058 -11.134 -213.657 -87.526 -13.7 -208.8 -48.1
13.069 13.068 -11.134 -213.657 -87.526 -13.7 -208.8 -48.1
13.079 13.078 -11.991 -214.813 -87.848 -13.7 -208.8 -48.1
13.089 13.088 -11.991 -214.813 -87.848 -13.7 -208.8 -48.1
13.099 13.098 -11.635 -214.248 -90.048004 -13.7 -208.8 -48.1
13.109 13.108 -11.635 -214.248 -90.048004 -13.7 -208.8 -48.1
13.119 13.118 -10.483 -212.062 -89.73399 -13.7 -208.8 -48.1
13.130 13.128 -10.483 -212.062 -89.73399 -13.7 -208.8 -48.1
13.139 13.138 -11.356 -211.564 -88.804 -13.7 -208.8 -48.1
13.149 13.148 -11.356 -211.564 -88.804 -13.7 -208.8 -48.1
13.159 13.158 -10.45 -210.171 -90.059 -13.7 -208.8 -48.1
13.169 13.168 -10.45 -210.171 -90.059 -13.7 -208.8 -48.1
13.179 13.178 -9.056999 -208.014 -88.473 -13.7 -208.8 -48.1
13.189 13.188 -9.056999 -208.014 -88.473 -13.7 -208.8 -48.1
13.199 13.198 -8.437 -205.291 -89.101 -13.7 -208.8 -48.1
13.209 13.208 -8.437 -205.291 -89.101 -13.7 -208.8 -48.1
13.219 13.218 -5.935 -203.78801 -87.516 -13.7 -208.8 -48.1
13.229 13.228 -5.935 -203.78801 -87.516 -13.7 -208.8 -48.1
13.239 13.238 -2.8239994 -202.091 -87.49899 -13.7 -208.8 -48.1
13.249 13.248 -2.8239994 -202.091 -87.49899 -13.7 -208.8 -48.1
13.259 13.258 -0.94799995 -202.8 -84.981 -13.7 -208.8 -48.1
13.269 13.268 -0.94799995 -202.8 -84.981 -13.7 -208.8 -48.1
13.279 13.278 1.7890005 -204.3 -84.031 -13.7 -208.8 -48.1
13.289 13.288 1.7890005 -204.3 -84.031 -13.7 -208.8 -48.1
13.299 13.298 7.021001 -207.287 -83.382 -13.7 -208.8 -48.1
13.309 13.308 7.021001 -207.287 -83.382 -13.7 -208.8 -48.1
13.319 13.318 9.952001 -210.651 -80.881 -13.7 -208.8 -48.1
13.329 13.328 9.952001 -210.651 -80.881 -13.7 -208.8 -48.1
13.339 13.338 11.702001 -215.203 -77.481 -13.7 -208.8 -48.1
13.349 13.348 11.702001 -215.203 -77.481 -13.7 -208.8 -48.1
13.359 13.358 12.905 -220.864 -75.020996 -13.7 -208.8 -48.1
13.369 13.368 12.905 -220.864 -75.020996 -13.7 -208.8 -48.1
13.380 13.378 13.1779995 -227.89 -70.12 -14.4 -208.2 -48.5
13.389 13.388 13.1779995 -227.89 -70.12 -14.4 -208.2 -48.5
13.399 13.398 10.971001 -235.316 -64.61 -14.4 -208.2 -48.5
13.409 13.408 10.971001 -235.316 -64.61 -14.4 -208.2 -48.5
13.419 13.418 5.297001 -242.65799 -53.5 -14.4 -208.2 -48.5
13.429 13.428 5.297001 -242.65799 -53.5 -14.4 -208.2 -48.5
13.439 13.438 0.7950001 -246.38899 -43.508 -14.4 -208.2 -48.5
13.449 13.448 0.7950001 -246.38899 -43.508 -14.4 -208.2 -48.5
13.459 13.458 -10.726 -245.093 -30.066 -14.4 -208.2 -48.5
13.469 13.468 -10.726 -245.093 -30.066 -14.4 -208.2 -48.5
13.480 13.478 -18.168 -240.423 -23.09 -14.4 -208.2 -48.5
13.489 13.488 -18.168 -240.423 -23.09 -14.4 -208.2 -48.5
13.499 13.498 -25.304 -234.653 -17.359 -14.4 -208.2 -48.5
13.509 13.508 -25.304 -234.653 -17.359 -14.4 -208.2 -48.5
13.519 13.518 -29.811 -229.726 -16.022999 -14.4 -208.2 -48.5
13.529 13.528 -29.811 -229.726 -16.022999 -14.4 -208.2 -48.5
13.540 13.538 -29.314999 -226.13 -13.411999 -14.4 -208.2 -48.5
13.549 13.548 -29.314999 -226.13 -13.411999 -14.4 -208.2 -48.5
13.559 13.558 -26.022999 -223.013 -10.488998 -14.4 -208.2 -48.5
13.570 13.568 -26.022999 -223.013 -10.488998 -14.4 -208.2 -48.5
13.579 13.578 -19.295 -217.338 -7.866001 -14.4 -208.2 -48.5
13.589 13.588 -19.295 -217.338 -7.866001 -14.4 -208.2 -48.5
13.599 13.598 -15.025 -210.29 -6.5219994 -14.4 -208.2 -48.5
13.609 13.608 -15.025 -210.29 -6.5219994 -14.4 -208.2 -48.5
13.619 13.618 -12.952999 -202.221 -6.466999 -14.4 -208.2 -48.5
13.629 13.628 -12.952999 -202.221 -6.466999 -14.4 -208.2 -48.5
13.639 13.638 -11.901999 -192.733 -8.932999 -14.4 -208.2 -48.5
13.649 13.648 -11.901999 -192.733 -8.932999 -14.4 -208.2 -48.5
13.659 13.658 -14.457999 -184.87 -13.962002 -14.4 -208.2 -48.5
13.669 13.668 -14.457999 -184.87 -13.962002 -14.4 -208.2 -48.5
13.679 13.678 -16.696999 -177.142 -20.56 -14.4 -208.2 -48.5
13.689 13.688 -16.696999 -177.142 -20.56 -14.4 -208.2 -48.5
13.699 13.698 -17.782 -172.239 -28.735 -14.4 -208.2 -48.5
13.709 13.708 -17.782 -172.239 -28.735 -14.4 -208.2 -48.5
13.719 13.718 -17.585 -169.075 -33.762 -14.4 -208.2 -48.5
13.729 13.728 -17.585 -169.075 -33.762 -14.4 -208.2 -48.5
13.739 13.738 -14.007 -168.23 -40.016 -14.4 -208.2 -48.5
13.749 13.748 -14.007 -168.23 -40.016 -14.4 -208.2 -48.5
13.759 13.758 -9.065 -167.427 -44.382 -14.4 -208.2 -48.5
13.769 13.768 -9.065 -167.427 -44.382 -14.4 -208.2 -48.5
13.779 13.778 -4.8780003 -168.058 -52.205 -14.1 -208.5 -47.9
13.789 13.788 -4.8780003 -168.058 -52.205 -14.1 -208.5 -47.9
13.799 13.798 -1.875 -170.23 -59.098 -14.1 -208.5 -47.9
13.809 13.808 -1.875 -170.23 -59.098 -14.1 -208.5 -47.9
13.819 13.818 2.2129993 -176.927 -66.927 -14.1 -208.5 -47.9
13.829 13.828 2.2129993 -176.927 -66.927 -14.1 -208.5 -47.9
13.839 13.838 3.7649994 -180.642 -72.897 -14.1 -208.5 -47.9
13.849 13.848 3.7649994 -180.642 -72.897 -14.1 -208.5 -47.9
13.859 13.858 1.3199997 -185.231 -77.945 -14.1 -208.5 -47.9
13.869 13.868 1.3199997 -185.231 -77.945 -14.1 -208.5 -47.9
13.879 13.878 -0.072999954 -190.228 -80.469 -14.1 -208.5 -47.9
13.889 13.888 -0.072999954 -190.228 -80.469 -14.1 -208.5 -47.9
13.899 13.898 0.5029993 -194.54 -82.984 -14.1 -208.5 -47.9
13.909 13.908 0.5029993 -194.54 -82.984 -14.1 -208.5 -47.9
13.919 13.918 1.585 -199.568 -83.601 -14.1 -208.5 -47.9
13.929 13.928 1.585 -199.568 -83.601 -14.1 -208.5 -47.9
13.940 13.938 2.9650002 -204.237 -84.857 -14.1 -208.5 -47.9
13.949 13.948 2.9650002 -204.237 -84.857 -14.1 -208.5 -47.9
13.959 13.958 5.6779995 -208.957 -83.576996 -14.1 -208.5 -47.9
13.969 13.968 5.6779995 -208.957 -83.576996 -14.1 -208.5 -47.9
13.979 13.978 5.885 -213.348 -82.953 -14.1 -208.5 -47.9
13.989 13.988 5.885 -213.348 -82.953 -14.1 -208.5 -47.9
13.999 13.998 6.331999 -218.752 -81.695 -14.1 -208.5 -47.9
14.009 14.008 6.331999 -218.752 -81.695 -14.1 -208.5 -47.9
14.019 14.018 3.4680004 -221.133 -81.093 -14.1 -208.5 -47.9
14.029 14.028 3.4680004 -221.133 -81.093 -14.1 -208.5 -47.9
14.039 14.038 -0.9470005 -222.569 -84.591 -14.1 -208.5 -47.9
14.049 14.048 -0.9470005 -222.569 -84.591 -14.1 -208.5 -47.9
14.059 14.058 -6.0150003 -222.58301 -84.638 -14.1 -208.5 -47.9
14.069 14.068 -6.0150003 -222.58301 -84.638 -14.1 -208.5 -47.9
14.079 14.078 -10.715 -220.698 -86.885 -14.1 -208.5 -47.9
14.089 14.088 -10.715 -220.698 -86.885 -14.1 -208.5 -47.9
14.099 14.098 -12.699 -219.877 -85.969 -14.1 -208.5 -47.9
14.109 14.108 -12.699 -219.877 -85.969 -14.1 -208.5 -47.9
14.119 14.118 -10.985001 -220.686 -86.903 -14.1 -208.5 -47.9
14.129 14.128 -10.985001 -220.686 -86.903 -14.1 -208.5 -47.9
14.139 14.138 -9.341001 -222.706 -86.275 -14.1 -208.5 -47.9
14.149 14.148 -9.341001 -222.706 -86.275 -14.1 -208.5 -47.9
14.159 14.158 -4.8780003 -225.04199 -85.619 -14.1 -208.5 -47.9
14.169 14.168 -4.8780003 -225.04199 -85.619 -14.1 -208.5 -47.9
14.179 14.178 -1.0880003 -234.159 -75.856995 -15.0 -208.4 -47.6
14.189 14.188 -1.0880003 -234.159 -75.856995 -15.0 -208.4 -47.6
14.199 14.198 2.2490005 -240.36699 -68.296 -15.0 -208.4 -47.6
14.209 14.208 2.2490005 -240.36699 -68.296 -15.0 -208.4 -47.6
14.219 14.218 4.047001 -244.01599 -55.105 -15.0 -208.4 -47.6
14.229 14.228 4.047001 -244.01599 -55.105 -15.0 -208.4 -47.6
14.239 14.238 3.712 -245.10999 -44.764 -15.0 -208.4 -47.6
14.249 14.248 3.712 -245.10999 -44.764 -15.0 -208.4 -47.6
14.259 14.258 1.6819992 -243.394 -32.863 -15.0 -208.4 -47.6
14.269 14.268 1.6819992 -243.394 -32.863 -15.0 -208.4 -47.6
14.279 14.278 -1.1389999 -238.334 -20.954998 -15.0 -208.4 -47.6
14.289 14.288 -1.1389999 -238.334 -20.954998 -15.0 -208.4 -47.6
14.299 14.298 -6.6379995 -230.03299 -11.878998 -15.0 -208.4 -47.6
14.309 14.308 -6.6379995 -230.03299 -11.878998 -15.0 -208.4 -47.6
14.319 14.318 -12.53 -219.595 -7.8269997 -15.0 -208.4 -47.6
14.329 14.328 -12.53 -219.595 -7.8269997 -15.0 -208.4 -47.6
14.339 14.338 -18.655 -209.946 -5.9679985 -15.0 -208.4 -47.6
14.349 14.348 -18.655 -209.946 -5.9679985 -15.0 -208.4 -47.6
14.359 14.358 -20.498001 -202.055 -6.896 -15.0 -208.4 -47.6
14.369 14.368 -20.498001 -202.055 -6.896 -15.0 -208.4 -47.6
14.379 14.378 -20.903 -195.11 -9.0739975 -15.0 -208.4 -47.6
14.389 14.388 -20.903 -195.11 -9.0739975 -15.0 -208.4 -47.6
14.399 14.398 -20.137001 -187.29399 -12.812 -15.0 -208.4 -47.6
14.409 14.408 -20.137001 -187.29399 -12.812 -15.0 -208.4 -47.6
14.419 14.418 -20.475 -180.116 -17.196999 -15.0 -208.4 -47.6
14.429 14.428 -20.475 -180.116 -17.196999 -15.0 -208.4 -47.6
14.439 14.438 -21.855 -174.394 -25.044998 -15.0 -208.4 -47.6
14.449 14.448 -21.855 -174.394 -25.044998 -15.0 -208.4 -47.6
14.459 14.458 -23.353 -172.077 -30.394 -15.0 -208.4 -47.6
14.469 14.468 -23.353 -172.077 -30.394 -15.0 -208.4 -47.6
14.479 14.478 -22.397 -169.96799 -33.518997 -15.0 -208.4 -47.6
14.489 14.488 -22.397 -169.96799 -33.518997 -15.0 -208.4 -47.6
14.499 14.498 -22.791 -169.152 -38.538 -15.0 -208.4 -47.6
14.509 14.508 -22.791 -169.152 -38.538 -15.0 -208.4 -47.6
14.519 14.518 -21.505001 -168.355 -43.558 -15.0 -208.4 -47.6
14.529 14.528 -21.505001 -168.355 -43.558 -15.0 -208.4 -47.6
14.539 14.538 -19.343 -167.857 -49.823997 -15.0 -208.4 -47.6
14.549 14.548 -19.343 -167.857 -49.823997 -15.0 -208.4 -47.6
14.559 14.558 -15.977 -168.79199 -58.926 -15.0 -208.4 -47.6
14.569 14.568 -15.977 -168.79199 -58.926 -15.0 -208.4 -47.6
14.579 14.578 -14.657 -171.627 -66.468 -14.7 -208.4 -47.3
14.589 14.588 -14.657 -171.627 -66.468 -14.7 -208.4 -47.3
14.599 14.598 -13.158999 -175.70499 -71.169 -14.7 -208.4 -47.3
14.609 14.608 -13.158999 -175.70499 -71.169 -14.7 -208.4 -47.3
14.619 14.618 -10.179 -180.719 -78.387 -14.7 -208.4 -47.3
14.629 14.628 -10.179 -180.719 -78.387 -14.7 -208.4 -47.3
14.639 14.638 -9.048 -185.54399 -80.583 -14.7 -208.4 -47.3
14.649 14.648 -9.048 -185.54399 -80.583 -14.7 -208.4 -47.3
14.659 14.658 -7.904 -189.008 -82.778 -14.7 -208.4 -47.3
14.669 14.668 -7.904 -189.008 -82.778 -14.7 -208.4 -47.3
14.679 14.678 -6.1639996 -193.457 -86.227 -14.7 -208.4 -47.3
14.689 14.688 -6.1639996 -193.457 -86.227 -14.7 -208.4 -47.3
14.699 14.698 -5.924 -197.808 -86.853 -14.7 -208.4 -47.3
14.709 14.708 -5.924 -197.808 -86.853 -14.7 -208.4 -47.3
14.719 14.718 -4.8389997 -201.50099 -86.841995 -14.7 -208.4 -47.3
14.729 14.728 -4.8389997 -201.50099 -86.841995 -14.7 -208.4 -47.3
14.739 14.738 -3.486 -205.534 -86.83099 -14.7 -208.4 -47.3
14.749 14.748 -3.486 -205.534 -86.83099 -14.7 -208.4 -47.3
14.759 14.758 -5.226 -209.577 -86.839005 -14.7 -208.4 -47.3
14.769 14.768 -5.226 -209.577 -86.839005 -14.7 -208.4 -47.3
14.779 14.778 -6.947 -214.095 -87.794 -14.7 -208.4 -47.3
14.789 14.788 -6.947 -214.095 -87.794 -14.7 -208.4 -47.3
14.799 14.798 -10.6970005 -217.657 -86.881 -14.7 -208.4 -47.3
14.808 14.808 -10.6970005 -217.657 -86.881 -14.7 -208.4 -47.3
14.819 14.818 -12.667999 -219.32999 -87.531 -14.7 -208.4 -47.3
14.829 14.828 -12.667999 -219.32999 -87.531 -14.7 -208.4 -47.3
14.839 14.838 -14.351 -219.153 -87.864 -14.7 -208.4 -47.3
14.849 14.848 -14.351 -219.153 -87.864 -14.7 -208.4 -47.3
14.859 14.858 -17.494 -218.021 -86.319 -14.7 -208.4 -47.3
14.869 14.868 -17.494 -218.021 -86.319 -14.7 -208.4 -47.3
14.879 14.878 -20.258999 -216.142 -87.289 -14.7 -208.4 -47.3
14.889 14.888 -20.258999 -216.142 -87.289 -14.7 -208.4 -47.3
14.899 14.898 -21.332 -214.105 -87.931 -14.7 -208.4 -47.3
14.909 14.908 -21.332 -214.105 -87.931 -14.7 -208.4 -47.3
14.919 14.918 -21.014 -212.239 -88.246994 -14.7 -208.4 -47.3
14.929 14.928 -21.014 -212.239 -88.246994 -14.7 -208.4 -47.3
14.939 14.938 -22.123 -210.56299 -88.265 -14.7 -208.4 -47.3
14.949 14.948 -22.123 -210.56299 -88.265 -14.7 -208.4 -47.3
14.959 14.958 -18.36 -209.969 -91.069 -14.7 -208.4 -47.3
14.969 14.968 -18.36 -209.969 -91.069 -14.7 -208.4 -47.3
14.979 14.978 -13.385 -212.98201 -89.789 -14.8 -208.3 -47.3
14.989 14.988 -13.385 -212.98201 -89.789 -14.8 -208.3 -47.3
14.999 14.998 -7.544 -216.965 -89.757996 -14.8 -208.3 -47.3
15.009 15.008 -7.544 -216.965 -89.757996 -14.8 -208.3 -47.3
15.019 15.018 -3.797 -222.22 -86.285995 -14.8 -208.3 -47.3
15.029 15.028 -3.797 -222.22 -86.285995 -14.8 -208.3 -47.3
15.039 15.038 -0.934 -228.321 -81.902 -14.8 -208.3 -47.3
15.049 15.048 -0.934 -228.321 -81.902 -14.8 -208.3 -47.3
15.059 15.058 -0.09599972 -235.466 -76.293 -14.8 -208.3 -47.3
15.069 15.068 -0.09599972 -235.466 -76.293 -14.8 -208.3 -47.3
15.079 15.078 -0.41200066 -241.83 -68.502 -14.8 -208.3 -47.3
15.089 15.088 -0.41200066 -241.83 -68.502 -14.8 -208.3 -47.3
15.099 15.098 -3.2280006 -247.04001 -61.059 -14.8 -208.3 -47.3
15.109 15.108 -3.2280006 -247.04001 -61.059 -14.8 -208.3 -47.3
15.119 15.118 -9.963 -250.291 -52.378 -14.8 -208.3 -47.3
15.129 15.128 -9.963 -250.291 -52.378 -14.8 -208.3 -47.3
15.140 15.138 -15.873 -249.802 -41.496 -14.8 -208.3 -47.3
15.149 15.148 -15.873 -249.802 -41.496 -14.8 -208.3 -47.3
15.159 15.158 -22.181 -247.684 -35.888 -14.8 -208.3 -47.3
15.169 15.168 -22.181 -247.684 -35.888 -14.8 -208.3 -47.3
15.179 15.178 -28.578 -242.658 -26.493 -14.8 -208.3 -47.3
15.189 15.188 -28.578 -242.658 -26.493 -14.8 -208.3 -47.3
15.199 15.198 -31.726002 -236.623 -22.376999 -14.8 -208.3 -47.3
15.209 15.208 -31.726002 -236.623 -22.376999 -14.8 -208.3 -47.3
15.219 15.218 -34.923 -229.942 -16.991999 -14.8 -208.3 -47.3
15.229 15.228 -34.923 -229.942 -16.991999 -14.8 -208.3 -47.3
15.239 15.238 -34.12 -222.834 -13.458 -14.8 -208.3 -47.3
15.249 15.248 -34.12 -222.834 -13.458 -14.8 -208.3 -47.3
15.259 15.258 -31.399002 -216.242 -8.348999 -14.8 -208.3 -47.3
15.269 15.268 -31.399002 -216.242 -8.348999 -14.8 -208.3 -47.3
15.279 15.278 -27.706001 -208.713 -6.6870003 -14.8 -208.3 -47.3
15.289 15.288 -27.706001 -208.713 -6.6870003 -14.8 -208.3 -47.3
15.299 15.298 -23.004002 -196.38701 -8.16 -14.8 -208.3 -47.3
15.309 15.308 -23.004002 -196.38701 -8.16 -14.8 -208.3 -47.3
15.319 15.318 -21.969 -188.069 -10.945 -14.8 -208.3 -47.3
15.329 15.328 -21.969 -188.069 -10.945 -14.8 -208.3 -47.3
15.339 15.338 -23.654 -181.007 -17.526 -14.8 -208.3 -47.3
15.349 15.348 -23.654 -181.007 -17.526 -14.8 -208.3 -47.3
15.359 15.358 -21.683 -174.1 -23.779 -14.8 -208.3 -47.3
15.369 15.368 -21.683 -174.1 -23.779 -14.8 -208.3 -47.3
15.379 15.378 -21.422 -170.214 -30.678 -15.5 -208.6 -47.3
15.389 15.388 -21.422 -170.214 -30.678 -15.5 -208.6 -47.3
15.399 15.398 -20.032 -167.99701 -38.21 -15.5 -208.6 -47.3
15.409 15.408 -20.032 -167.99701 -38.21 -15.5 -208.6 -47.3
15.419 15.418 -16.435 -167.126 -45.09 -15.5 -208.6 -47.3
15.429 15.428 -16.435 -167.126 -45.09 -15.5 -208.6 -47.3
15.439 15.438 -13.143 -165.95601 -50.731 -15.5 -208.6 -47.3
15.449 15.448 -13.143 -165.95601 -50.731 -15.5 -208.6 -47.3
15.459 15.458 -10.415 -167.136 -57.001 -15.5 -208.6 -47.3
15.469 15.468 -10.415 -167.136 -57.001 -15.5 -208.6 -47.3
15.479 15.478 -10.273 -168.84601 -62.347 -15.5 -208.6 -47.3
15.489 15.488 -10.273 -168.84601 -62.347 -15.5 -208.6 -47.3
15.499 15.498 -11.545 -172.23901 -68.332 -15.5 -208.6 -47.3
15.509 15.508 -11.545 -172.23901 -68.332 -15.5 -208.6 -47.3
15.519 15.518 -12.836 -175.475 -73.382 -15.5 -208.6 -47.3
15.529 15.528 -12.836 -175.475 -73.382 -15.5 -208.6 -47.3
15.539 15.538 -14.754 -178.781 -76.543 -15.5 -208.6 -47.3
15.549 15.548 -14.754 -178.781 -76.543 -15.5 -208.6 -47.3
15.559 15.558 -16.375 -182.04901 -80.33 -15.5 -208.6 -47.3
15.569 15.568 -16.375 -182.04901 -80.33 -15.5 -208.6 -47.3
15.579 15.578 -14.654 -185.188 -82.516 -15.5 -208.6 -47.3
15.589 15.588 -14.654 -185.188 -82.516 -15.5 -208.6 -47.3
15.599 15.598 -14.059 -188.49501 -85.03 -15.5 -208.6 -47.3
15.609 15.608 -14.059 -188.49501 -85.03 -15.5 -208.6 -47.3
15.620 15.618 -12.967 -192.17001 -85.645004 -15.5 -208.6 -47.3
15.629 15.628 -12.967 -192.17001 -85.645004 -15.5 -208.6 -47.3
15.640 15.638 -11.865 -197.166 -86.897 -15.5 -208.6 -47.3
15.649 15.648 -11.865 -197.166 -86.897 -15.5 -208.6 -47.3
15.659 15.658 -13.568 -200.83801 -88.169 -15.5 -208.6 -47.3
15.669 15.668 -13.568 -200.83801 -88.169 -15.5 -208.6 -47.3
15.679 15.678 -17.27 -204.878 -88.825 -15.5 -208.6 -47.3
15.689 15.688 -17.27 -204.878 -88.825 -15.5 -208.6 -47.3
15.699 15.698 -18.129 -204.212 -88.199 -15.5 -208.6 -47.3
15.709 15.708 -18.129 -204.212 -88.199 -15.5 -208.6 -47.3
15.720 15.718 -18.151001 -203.039 -87.254 -15.5 -208.6 -47.3
15.729 15.728 -18.151001 -203.039 -87.254 -15.5 -208.6 -47.3
15.740 15.738 -18.111 -202.848 -88.2 -15.5 -208.6 -47.3
15.749 15.748 -18.111 -202.848 -88.2 -15.5 -208.6 -47.3
15.759 15.758 -14.474 -201.49501 -86.919 -15.5 -208.6 -47.3
15.769 15.768 -14.474 -201.49501 -86.919 -15.5 -208.6 -47.3
15.779 15.778 -12.456 -199.95201 -87.846 -15.5 -208.6 -47.3
15.789 15.788 -12.456 -199.95201 -87.846 -15.5 -208.6 -47.3
15.799 15.798 -11.878 -197.438 -86.904 -15.5 -208.6 -47.3
15.809 15.808 -11.878 -197.438 -86.904 -15.5 -208.6 -47.3
15.819 15.818 -9.592 -195.55 -87.203995 -15.5 -208.6 -47.3
15.829 15.828 -9.592 -195.55 -87.203995 -15.5 -208.6 -47.3
15.839 15.838 -8.757999 -194.54501 -86.571 -15.5 -208.6 -47.3
15.849 15.848 -8.757999 -194.54501 -86.571 -15.5 -208.6 -47.3
15.859 15.858 -4.894 -193.908 -84.033 -15.5 -208.6 -47.1
15.869 15.868 -4.894 -193.908 -84.033 -15.5 -208.6 -47.1
15.879 15.878 -1.0129995 -193.904 -82.75 -15.5 -208.6 -47.1
15.889 15.888 -1.0129995 -193.904 -82.75 -15.5 -208.6 -47.1
15.899 15.898 4.5079994 -196.06601 -81.778 -15.5 -208.6 -47.1
15.909 15.908 4.5079994 -196.06601 -81.778 -15.5 -208.6 -47.1
15.919 15.918 9.445999 -199.55301 -80.824 -15.5 -208.6 -47.1
15.929 15.928 9.445999 -199.55301 -80.824 -15.5 -208.6 -47.1
15.940 15.938 12.895 -202.778 -77.387 -15.5 -208.6 -47.1
15.949 15.948 12.895 -202.778 -77.387 -15.5 -208.6 -47.1
15.959 15.958 13.848 -207.627 -75.223 -15.5 -208.6 -47.1
15.969 15.968 13.848 -207.627 -75.223 -15.5 -208.6 -47.1
15.979 15.978 16.505001 -213.444 -74.304 -15.5 -208.6 -47.1
15.989 15.988 16.505001 -213.444 -74.304 -15.5 -208.6 -47.1
15.999 15.998 14.903 -219.675 -70.319 -15.5 -208.6 -47.1
16.009 16.008 14.903 -219.675 -70.319 -15.5 -208.6 -47.1
16.019 16.018 15.058001 -223.39801 -67.854996 -15.5 -208.6 -47.1
16.029 16.028 15.058001 -223.39801 -67.854996 -15.5 -208.6 -47.1
16.039 16.038 11.406 -228.905 -68.214 -15.5 -208.6 -47.1
16.049 16.048 11.406 -228.905 -68.214 -15.5 -208.6 -47.1
16.059 16.058 11.339001 -231.65201 -66.358 -15.5 -208.6 -47.1
16.069 16.068 11.339001 -231.65201 -66.358 -15.5 -208.6 -47.1
16.079 16.078 10.143 -234.936 -64.187 -15.5 -208.6 -47.1
16.089 16.088 10.143 -234.936 -64.187 -15.5 -208.6 -47.1
16.099 16.098 8.409 -237.56401 -62.008 -15.5 -208.6 -47.1
16.109 16.108 8.409 -237.56401 -62.008 -15.5 -208.6 -47.1
16.119 16.118 5.834999 -240.354 -60.135 -15.5 -208.6 -47.1
16.129 16.128 5.834999 -240.354 -60.135 -15.5 -208.6 -47.1
16.140 16.138 0.7369995 -243.811 -58.274998 -15.5 -208.6 -47.1
16.149 16.148 0.7369995 -243.811 -58.274998 -15.5 -208.6 -47.1
16.160 16.158 -2.1610003 -245.667 -54.518997 -15.5 -208.6 -47.1
16.169 16.168 -2.1610003 -245.667 -54.518997 -15.5 -208.6 -47.1
16.180 16.178 -6.7130003 -247.798 -52.646 -15.5 -208.6 -47.1
16.189 16.188 -6.7130003 -247.798 -52.646 -15.5 -208.6 -47.1
16.199 16.198 -10.777 -248.005 -47.633 -15.5 -208.6 -47.1
16.210 16.208 -10.777 -248.005 -47.633 -15.5 -208.6 -47.1
16.219 16.218 -14.834 -248.83801 -43.864 -15.5 -208.6 -47.1
16.229 16.228 -14.834 -248.83801 -43.864 -15.5 -208.6 -47.1
16.239 16.238 -19.117 -247.47 -41.039997 -15.5 -208.6 -47.1
16.249 16.248 -19.117 -247.47 -41.039997 -15.5 -208.6 -47.1
16.259 16.258 -23.447 -245.781 -36.951 -15.7 -208.3 -47.3
16.269 16.268 -23.447 -245.781 -36.951 -15.7 -208.3 -47.3
16.279 16.278 -27.534 -242.801 -30.984 -15.7 -208.3 -47.3
16.289 16.288 -27.534 -242.801 -30.984 -15.7 -208.3 -47.3
16.299 16.298 -29.932999 -238.295 -24.677 -15.7 -208.3 -47.3
16.309 16.308 -29.932999 -238.295 -24.677 -15.7 -208.3 -47.3
16.319 16.318 -30.588 -233.05501 -20.25 -15.7 -208.3 -47.3
16.329 16.328 -30.588 -233.05501 -20.25 -15.7 -208.3 -47.3
16.340 16.338 -28.702 -228.628 -16.112 -15.7 -208.3 -47.3
16.349 16.348 -28.702 -228.628 -16.112 -15.7 -208.3 -47.3
16.359 16.358 -23.994 -224.839 -12.583 -15.7 -208.3 -47.3
16.369 16.368 -23.994 -224.839 -12.583 -15.7 -208.3 -47.3
16.379 16.378 -19.261 -217.545 -8.1119995 -15.7 -208.3 -47.3
16.389 16.388 -19.261 -217.545 -8.1119995 -15.7 -208.3 -47.3
16.399 16.398 -12.8949995 -202.92 -7.722 -15.7 -208.3 -47.3
16.409 16.408 -12.8949995 -202.92 -7.722 -15.7 -208.3 -47.3
16.419 16.418 -10.436 -193.608 -10.501999 -15.7 -208.3 -47.3
16.429 16.428 -10.436 -193.608 -10.501999 -15.7 -208.3 -47.3
16.439 16.438 -6.795 -184.076 -14.856998 -15.9 -207.3 -47.6
16.449 16.448 -6.795 -184.076 -14.856998 -15.9 -207.3 -47.6
16.459 16.458 -3.3509998 -177.964 -23.294998 -15.9 -207.3 -47.6
16.469 16.468 -3.3509998 -177.964 -23.294998 -15.9 -207.3 -47.6
16.479 16.478 2.3169994 -175.52501 -32.98 -15.9 -207.3 -47.6
16.489 16.488 2.3169994 -175.52501 -32.98 -15.9 -207.3 -47.6
16.499 16.498 7.6289997 -175.479 -40.792 -15.9 -207.3 -47.6
16.509 16.508 7.6289997 -175.479 -40.792 -15.9 -207.3 -47.6
16.519 16.518 10.3689995 -176.80301 -47.989 -15.9 -207.3 -47.6
16.529 16.528 10.3689995 -176.80301 -47.989 -15.9 -207.3 -47.6
16.540 16.538 10.875999 -179.108 -56.461998 -15.9 -207.3 -47.6
16.549 16.548 10.875999 -179.108 -56.461998 -15.9 -207.3 -47.6
16.559 16.558 11.304001 -182.48401 -62.427 -15.9 -207.3 -47.6
16.569 16.568 11.304001 -182.48401 -62.427 -15.9 -207.3 -47.6
16.579 16.578 9.824001 -186.48601 -70.927 -15.9 -207.3 -47.6
16.589 16.588 9.824001 -186.48601 -70.927 -15.9 -207.3 -47.6
16.599 16.598 7.4209995 -191.539 -77.556 -15.9 -207.3 -47.6
16.609 16.608 7.4209995 -191.539 -77.556 -15.9 -207.3 -47.6
16.619 16.618 3.2889996 -196.476 -82.621 -15.9 -207.3 -47.6
16.629 16.628 3.2889996 -196.476 -82.621 -15.9 -207.3 -47.6
16.639 16.638 2.1639996 -201.266 -86.121994 -16.2 -207.6 -48.3
16.649 16.648 2.1639996 -201.266 -86.121994 -16.2 -207.6 -48.3
16.659 16.658 -2.2990007 -203.27501 -86.777 -16.2 -207.6 -48.3
16.669 16.668 -2.2990007 -203.27501 -86.777 -16.2 -207.6 -48.3
16.679 16.678 -4.3380003 -205.483 -85.852 -16.2 -207.6 -48.3
16.689 16.688 -4.3380003 -205.483 -85.852 -16.2 -207.6 -48.3
16.700 16.698 -4.927001 -207.99501 -86.185 -16.2 -208.3 -47.7
16.709 16.708 -4.927001 -207.99501 -86.185 -16.2 -208.3 -47.7
16.719 16.718 -5.4560003 -208.634 -87.456 -16.2 -208.3 -47.7
16.729 16.728 -5.4560003 -208.634 -87.456 -16.2 -208.3 -47.7
16.739 16.738 -5.1990004 -209.481 -87.145004 -16.2 -208.3 -47.7
16.749 16.748 -5.1990004 -209.481 -87.145004 -16.2 -208.3 -47.7
16.759 16.758 -0.3880005 -208.102 -87.113 -16.2 -208.3 -47.7
16.769 16.768 -0.3880005 -208.102 -87.113 -16.2 -208.3 -47.7
16.779 16.778 3.4709988 -206.802 -83.949005 -16.2 -208.3 -47.7
16.789 16.788 3.4709988 -206.802 -83.949005 -16.2 -208.3 -47.7
16.799 16.798 7.101 -206.138 -82.662 -16.2 -208.3 -47.7
16.809 16.808 7.101 -206.138 -82.662 -16.2 -208.3 -47.7
16.819 16.818 11.754999 -204.549 -77.597 -16.2 -208.3 -47.7
16.829 16.828 11.754999 -204.549 -77.597 -16.2 -208.3 -47.7
16.839 16.838 17.710999 -205.20401 -69.701004 -16.2 -208.3 -47.7
16.849 16.848 17.710999 -205.20401 -69.701004 -16.2 -208.3 -47.7
16.859 16.858 21.469997 -206.81401 -64.33 -16.2 -208.3 -47.7
16.869 16.868 21.469997 -206.81401 -64.33 -16.2 -208.3 -47.7
16.879 16.878 22.346 -210.478 -57.721 -16.2 -208.3 -47.7
16.889 16.888 22.346 -210.478 -57.721 -16.2 -208.3 -47.7
16.899 16.898 23.599998 -216.44301 -46.403 -16.2 -208.3 -47.7
16.909 16.908 23.599998 -216.44301 -46.403 -16.2 -208.3 -47.7
16.919 16.918 19.448 -222.482 -32.625 -16.1 -207.9 -48.2
16.929 16.928 19.448 -222.482 -32.625 -16.1 -207.9 -48.2
16.940 16.938 9.536999 -226.11299 -22.67 -16.1 -207.9 -48.2
16.949 16.948 9.536999 -226.11299 -22.67 -16.1 -207.9 -48.2
16.959 16.958 0.074998856 -225.621 -16.473001 -16.1 -207.9 -48.2
16.969 16.968 0.074998856 -225.621 -16.473001 -16.1 -207.9 -48.2
16.979 16.978 -7.9000006 -223.57799 -11.829002 -16.1 -207.9 -48.2
16.989 16.988 -7.9000006 -223.57799 -11.829002 -16.1 -207.9 -48.2
16.999 16.998 -12.174 -219.68 -8.087002 -16.1 -207.9 -48.2
17.009 17.008 -12.174 -219.68 -8.087002 -16.1 -207.9 -48.2
17.019 17.018 -14.308001 -216.61499 -10.611 -16.1 -207.9 -48.2
17.030 17.028 -14.308001 -216.61499 -10.611 -16.1 -207.9 -48.2
17.039 17.038 -11.773001 -212.112 -9.016003 -16.1 -207.9 -48.2
17.049 17.048 -11.773001 -212.112 -9.016003 -16.1 -207.9 -48.2
17.059 17.058 -8.336 -207.084 -8.973999 -16.1 -207.9 -48.2
17.069 17.068 -8.336 -207.084 -8.973999 -16.1 -207.9 -48.2
17.079 17.078 -5.4350004 -200.862 -9.255001 -16.1 -207.9 -48.2
17.089 17.088 -5.4350004 -200.862 -9.255001 -16.1 -207.9 -48.2
17.099 17.098 -4.4280005 -195.073 -12.372002 -16.1 -207.9 -48.2
17.109 17.108 -4.4280005 -195.073 -12.372002 -16.1 -207.9 -48.2
17.119 17.118 -1.8540001 -185.517 -18.621002 -16.4 -207.9 -48.4
17.129 17.128 -1.8540001 -185.517 -18.621002 -16.4 -207.9 -48.4
17.140 17.138 -0.7950001 -181.177 -23.947002 -16.4 -207.9 -48.4
17.149 17.148 -0.7950001 -181.177 -23.947002 -16.4 -207.9 -48.4
17.159 17.158 1.137001 -176.159 -29.891 -16.4 -207.9 -48.4
17.169 17.168 1.137001 -176.159 -29.891 -16.4 -207.9 -48.4
17.179 17.178 3.3829994 -174.09201 -38.349 -17.1 -208.3 -48.3
17.189 17.188 3.3829994 -174.09201 -38.349 -17.1 -208.3 -48.3
17.199 17.198 6.153 -173.899 -45.864998 -17.1 -208.3 -48.3
17.209 17.208 6.153 -173.899 -45.864998 -17.1 -208.3 -48.3
17.219 17.218 9.747 -176.715 -53.996998 -17.1 -208.3 -48.3
17.229 17.228 9.747 -176.715 -53.996998 -17.1 -208.3 -48.3
17.239 17.238 11.018999 -182.41101 -61.206 -17.1 -208.3 -48.3
17.249 17.248 11.018999 -182.41101 -61.206 -17.1 -208.3 -48.3
17.259 17.258 11.527 -188.741 -70.934 -17.1 -208.3 -48.3
17.269 17.268 11.527 -188.741 -70.934 -17.1 -208.3 -48.3
17.279 17.278 7.997999 -196.628 -78.49 -17.1 -208.3 -48.3
17.289 17.288 7.997999 -196.628 -78.49 -17.1 -208.3 -48.3
17.299 17.298 2.4639988 -202.064 -83.874 -17.1 -208.3 -48.3
17.309 17.308 2.4639988 -202.064 -83.874 -17.1 -208.3 -48.3
17.319 17.318 -1.9829998 -206.543 -86.729996 -16.4 -207.8 -48.3
17.329 17.328 -1.9829998 -206.543 -86.729996 -16.4 -207.8 -48.3
17.339 17.338 -5.0689993 -209.044 -88.318 -16.4 -207.8 -48.3
17.349 17.348 -5.0689993 -209.044 -88.318 -16.4 -207.8 -48.3
17.359 17.358 -9.040999 -212.24 -88.668 -16.4 -207.8 -48.3
17.369 17.368 -9.040999 -212.24 -88.668 -16.4 -207.8 -48.3
17.379 17.378 -8.261 -213.95 -87.412994 -16.4 -207.8 -48.3
17.389 17.388 -8.261 -213.95 -87.412994 -16.4 -207.8 -48.3
17.399 17.398 -8.217 -213.24901 -88.67 -16.4 -207.8 -48.3
17.409 17.408 -8.217 -213.24901 -88.67 -16.4 -207.8 -48.3
17.419 17.418 -7.3689995 -211.743 -88.362 -16.4 -207.8 -48.3
17.429 17.428 -7.3689995 -211.743 -88.362 -16.4 -207.8 -48.3
17.439 17.438 -7.328 -209.711 -89.001 -16.4 -207.8 -48.3
17.449 17.448 -7.328 -209.711 -89.001 -16.4 -207.8 -48.3
17.459 17.458 -7.068 -206.565 -87.443 -16.4 -207.8 -48.3
17.469 17.468 -7.068 -206.565 -87.443 -16.4 -207.8 -48.3
17.479 17.478 -3.1229992 -205.035 -87.108 -16.4 -207.8 -48.3
17.489 17.488 -3.1229992 -205.035 -87.108 -16.4 -207.8 -48.3
17.499 17.498 1.5690002 -205.907 -84.884995 -16.4 -207.8 -48.3
17.509 17.508 1.5690002 -205.907 -84.884995 -16.4 -207.8 -48.3
17.519 17.518 6.5319996 -207.96901 -82.341995 -16.4 -207.8 -48.3
17.529 17.528 6.5319996 -207.96901 -82.341995 -16.4 -207.8 -48.3
17.540 17.538 11.426001 -210.884 -78.231 -16.4 -207.8 -48.3
17.549 17.548 11.426001 -210.884 -78.231 -16.4 -207.8 -48.3
17.559 17.558 14.882 -216.01201 -73.811 -16.4 -207.8 -48.3
17.569 17.568 14.882 -216.01201 -73.811 -16.4 -207.8 -48.3
17.579 17.578 16.868002 -223.183 -68.153 -16.4 -207.8 -48.3
17.589 17.588 16.868002 -223.183 -68.153 -16.4 -207.8 -48.3
17.599 17.598 14.597 -231.888 -62.211 -16.4 -207.8 -48.3
17.609 17.608 14.597 -231.888 -62.211 -16.4 -207.8 -48.3
17.619 17.618 9.253 -239.26201 -56.293 -16.4 -207.8 -48.3
17.629 17.628 9.253 -239.26201 -56.293 -16.4 -207.8 -48.3
17.640 17.638 2.7929993 -244.983 -49.764 -16.2 -208.1 -48.4
17.649 17.648 2.7929993 -244.983 -49.764 -16.2 -208.1 -48.4
17.659 17.658 -6.0670004 -247.97101 -45.763 -16.2 -208.1 -48.4
17.669 17.668 -6.0670004 -247.97101 -45.763 -16.2 -208.1 -48.4
17.679 17.678 -14.444 -249.19 -38.935 -16.2 -208.1 -48.4
17.689 17.688 -14.444 -249.19 -38.935 -16.2 -208.1 -48.4
17.699 17.698 -22.706001 -245.667 -33.985 -16.2 -208.1 -48.4
17.709 17.708 -22.706001 -245.667 -33.985 -16.2 -208.1 -48.4
17.719 17.718 -31.779001 -241.45601 -30.286001 -16.2 -208.1 -48.4
17.729 17.728 -31.779001 -241.45601 -30.286001 -16.2 -208.1 -48.4
17.739 17.738 -37.757 -235.41101 -25.607002 -16.2 -208.1 -48.4
17.749 17.748 -37.757 -235.41101 -25.607002 -16.2 -208.1 -48.4
17.759 17.758 -42.21 -227.92201 -24.694002 -16.2 -208.1 -48.4
17.769 17.768 -42.21 -227.92201 -24.694002 -16.2 -208.1 -48.4
17.779 17.778 -44.755 -220.796 -21.87 -16.2 -208.1 -48.4
17.789 17.788 -44.755 -220.796 -21.87 -16.2 -208.1 -48.4
17.799 17.798 -43.925003 -215.80801 -19.956001 -16.2 -208.1 -48.4
17.809 17.808 -43.925003 -215.80801 -19.956001 -16.2 -208.1 -48.4
17.819 17.818 -43.393 -211.48901 -18.049002 -16.2 -208.1 -48.4
17.829 17.828 -43.393 -211.48901 -18.049002 -16.2 -208.1 -48.4
17.839 17.838 -43.676003 -207.65001 -17.080002 -16.2 -208.1 -48.4
17.849 17.848 -43.676003 -207.65001 -17.080002 -16.2 -208.1 -48.4
17.859 17.858 -41.385002 -202.112 -16.728 -16.4 -208.7 -48.5
17.869 17.868 -41.385002 -202.112 -16.728 -16.4 -208.7 -48.5
17.879 17.878 -41.483 -193.801 -19.535 -16.4 -208.7 -48.5
17.889 17.888 -41.483 -193.801 -19.535 -16.4 -208.7 -48.5
17.899 17.898 -42.175 -189.18199 -22.981 -16.4 -208.7 -48.5
17.909 17.908 -42.175 -189.18199 -22.981 -16.4 -208.7 -48.5
17.919 17.918 -42.318 -185.056 -26.103 -16.4 -208.7 -48.5
17.929 17.928 -42.318 -185.056 -26.103 -16.4 -208.7 -48.5
17.940 17.938 -42.04 -180.82199 -33.642998 -16.4 -208.7 -48.5
17.949 17.948 -42.04 -180.82199 -33.642998 -16.4 -208.7 -48.5
17.960 17.958 -42.674 -179.48999 -40.243 -16.4 -208.7 -48.5
17.969 17.968 -42.674 -179.48999 -40.243 -16.4 -208.7 -48.5
17.979 17.978 -41.897 -177.98 -46.527 -16.4 -208.7 -48.5
17.989 17.988 -41.897 -177.98 -46.527 -16.4 -208.7 -48.5
18.000 17.998 -40.363 -176.87799 -50.287 -16.4 -208.7 -48.5
18.009 18.008 -40.363 -176.87799 -50.287 -16.4 -208.7 -48.5
18.020 18.018 -39.463997 -177.31 -52.477 -16.4 -208.7 -48.5
18.029 18.028 -39.463997 -177.31 -52.477 -16.4 -208.7 -48.5
18.039 18.038 -38.773 -176.211 -56.237 -16.4 -208.7 -48.5
18.049 18.048 -38.773 -176.211 -56.237 -16.4 -208.7 -48.5
18.059 18.058 -37.850998 -177.13101 -59.371 -15.9 -208.6 -48.3
18.069 18.068 -37.850998 -177.13101 -59.371 -15.9 -208.6 -48.3
18.079 18.078 -35.272 -176.41301 -60.596 -15.9 -208.6 -48.3
18.089 18.088 -35.272 -176.41301 -60.596 -15.9 -208.6 -48.3
18.099 18.098 -34.344 -176.52101 -63.421997 -15.9 -208.6 -48.3
18.109 18.108 -34.344 -176.52101 -63.421997 -15.9 -208.6 -48.3
18.119 18.118 -34.381 -178.03 -63.097 -15.9 -208.6 -48.3
18.129 18.128 -34.381 -178.03 -63.097 -15.9 -208.6 -48.3
18.140 18.138 -33.199 -177.30501 -64.966995 -16.1 -208.8 -48.3
18.149 18.148 -33.199 -177.30501 -64.966995 -16.1 -208.8 -48.3
18.159 18.158 -32.891 -177.949 -66.22 -16.1 -208.8 -48.3
18.169 18.168 -32.891 -177.949 -66.22 -16.1 -208.8 -48.3
18.179 18.178 -32.842003 -178.732 -68.406 -16.1 -208.8 -48.3
18.189 18.188 -32.842003 -178.732 -68.406 -16.1 -208.8 -48.3
18.199 18.198 -31.118 -179.017 -70.272 -16.1 -208.8 -48.3
18.209 18.208 -31.118 -179.017 -70.272 -16.1 -208.8 -48.3
18.219 18.218 -30.297 -179.676 -70.251 -16.1 -208.8 -48.3
18.229 18.228 -30.297 -179.676 -70.251 -16.1 -208.8 -48.3
18.239 18.238 -28.882 -179.99701 -70.854996 -16.1 -208.8 -48.3
18.249 18.248 -28.882 -179.99701 -70.854996 -16.1 -208.8 -48.3
18.259 18.258 -25.415 -180.7 -74.897 -16.1 -208.8 -48.3
18.269 18.268 -25.415 -180.7 -74.897 -16.1 -208.8 -48.3
18.279 18.278 -22.277 -182.787 -77.691 -16.1 -208.8 -48.3
18.289 18.288 -22.277 -182.787 -77.691 -16.1 -208.8 -48.3
18.299 18.298 -19.724 -186.878 -80.48399 -16.1 -208.8 -48.3
18.309 18.308 -19.724 -186.878 -80.48399 -16.1 -208.8 -48.3
18.319 18.318 -18.839 -190.468 -83.606995 -16.1 -208.8 -48.3
18.329 18.328 -18.839 -190.468 -83.606995 -16.1 -208.8 -48.3
18.340 18.338 -16.332 -193.266 -84.53 -16.1 -208.8 -48.3
18.349 18.348 -16.332 -193.266 -84.53 -16.1 -208.8 -48.3
18.359 18.358 -14.934 -197.379 -86.091995 -16.1 -208.8 -48.3
18.370 18.368 -14.934 -197.379 -86.091995 -16.1 -208.8 -48.3
18.379 18.378 -14.08 -199.173 -87.035 -16.1 -208.8 -48.3
18.389 18.388 -14.08 -199.173 -87.035 -16.1 -208.8 -48.3
18.399 18.398 -12.478001 -201.36101 -85.479996 -16.1 -208.8 -48.3
18.409 18.408 -12.478001 -201.36101 -85.479996 -16.1 -208.8 -48.3
18.419 18.418 -11.31 -203.626 -87.983 -16.1 -208.8 -48.3
18.429 18.428 -11.31 -203.626 -87.983 -16.1 -208.8 -48.3
18.440 18.438 -11.368 -206.292 -87.374 -16.1 -208.8 -48.3
18.449 18.448 -11.368 -206.292 -87.374 -16.1 -208.8 -48.3
18.459 18.458 -8.865 -207.272 -87.369995 -16.1 -208.8 -48.3
18.469 18.468 -8.865 -207.272 -87.369995 -16.1 -208.8 -48.3
18.480 18.478 -6.6660004 -209.421 -87.065994 -16.1 -208.8 -48.3
18.489 18.488 -6.6660004 -209.421 -87.065994 -16.1 -208.8 -48.3
18.500 18.498 -4.4570007 -211.414 -87.068 -16.1 -208.8 -48.3
18.509 18.508 -4.4570007 -211.414 -87.068 -16.1 -208.8 -48.3
18.519 18.518 -3.677 -212.936 -85.515 -15.6 -208.8 -47.5
18.529 18.528 -3.677 -212.936 -85.515 -15.6 -208.8 -47.5
18.540 18.538 -3.0930004 -213.099 -85.84801 -15.5 -208.8 -47.9
18.550 18.548 -3.0930004 -213.099 -85.84801 -15.5 -208.8 -47.9
18.559 18.558 -0.5810003 -213.759 -85.853 -15.5 -208.8 -47.9
18.569 18.568 -0.5810003 -213.759 -85.853 -15.5 -208.8 -47.9
18.579 18.578 4.309 -216.839 -82.735 -15.5 -208.8 -47.9
18.589 18.588 4.309 -216.839 -82.735 -15.5 -208.8 -47.9
18.599 18.598 9.219999 -219.431 -79.298004 -15.5 -208.8 -47.9
18.609 18.608 9.219999 -219.431 -79.298004 -15.5 -208.8 -47.9
18.619 18.618 14.524 -223.981 -70.563 -15.5 -208.8 -47.9
18.629 18.628 14.524 -223.981 -70.563 -15.5 -208.8 -47.9
18.639 18.638 17.342999 -227.23001 -61.81 -15.5 -208.8 -47.9
18.649 18.648 17.342999 -227.23001 -61.81 -15.5 -208.8 -47.9
18.659 18.658 16.364 -233.464 -48.377003 -15.5 -208.8 -47.9
18.669 18.668 16.364 -233.464 -48.377003 -15.5 -208.8 -47.9
18.679 18.678 11.391001 -236.746 -40.870003 -15.5 -208.8 -47.9
18.689 18.688 11.391001 -236.746 -40.870003 -15.5 -208.8 -47.9
18.699 18.698 4.627001 -239.45 -30.215002 -15.5 -208.8 -47.9
18.709 18.708 4.627001 -239.45 -30.215002 -15.5 -208.8 -47.9
18.719 18.718 -3.913 -238.99701 -24.583002 -15.5 -208.8 -47.9
18.730 18.728 -3.913 -238.99701 -24.583002 -15.5 -208.8 -47.9
18.739 18.738 -10.218 -237.522 -19.553001 -15.5 -208.8 -47.9
18.749 18.748 -10.218 -237.522 -19.553001 -15.5 -208.8 -47.9
18.759 18.758 -17.547 -234.797 -17.36 -15.5 -208.8 -47.9
18.770 18.768 -17.547 -234.797 -17.36 -15.5 -208.8 -47.9
18.779 18.778 -22.904 -231.039 -15.163002 -15.5 -208.8 -47.9
18.789 18.788 -22.904 -231.039 -15.163002 -15.5 -208.8 -47.9
18.799 18.798 -25.688 -227.88701 -14.827 -15.5 -208.8 -47.9
18.809 18.808 -25.688 -227.88701 -14.827 -15.5 -208.8 -47.9
18.819 18.818 -27.668 -224.917 -13.553001 -15.5 -208.8 -47.9
18.829 18.828 -27.668 -224.917 -13.553001 -15.5 -208.8 -47.9
18.839 18.838 -27.624 -219.422 -12.581001 -15.5 -208.8 -47.9
18.849 18.848 -27.624 -219.422 -12.581001 -15.5 -208.8 -47.9
18.859 18.858 -28.226 -215.797 -10.041 -15.5 -208.8 -47.9
18.869 18.868 -28.226 -215.797 -10.041 -15.5 -208.8 -47.9
18.879 18.878 -30.438 -211.117 -9.397003 -15.5 -208.8 -47.9
18.889 18.888 -30.438 -211.117 -9.397003 -15.5 -208.8 -47.9
18.899 18.898 -30.335 -205.378 -10.634003 -15.5 -208.8 -47.9
18.909 18.908 -30.335 -205.378 -10.634003 -15.5 -208.8 -47.9
18.919 18.918 -30.748001 -198.772 -12.817001 -15.5 -208.8 -47.9
18.929 18.928 -30.748001 -198.772 -12.817001 -15.5 -208.8 -47.9
18.940 18.938 -31.194 -191.517 -13.740997 -15.9 -209.2 -48.1
18.949 18.948 -31.194 -191.517 -13.740997 -15.9 -209.2 -48.1
18.960 18.958 -33.516 -187.03 -18.780998 -15.9 -209.2 -48.1
18.969 18.968 -33.516 -187.03 -18.780998 -15.9 -209.2 -48.1
18.979 18.978 -35.262 -182.185 -24.440998 -15.9 -209.2 -48.1
18.989 18.988 -35.262 -182.185 -24.440998 -15.9 -209.2 -48.1
18.999 18.998 -34.154 -178.80899 -31.654999 -15.9 -209.2 -48.1
19.009 19.008 -34.154 -178.80899 -31.654999 -15.9 -209.2 -48.1
19.019 19.018 -36.713997 -176.457 -38.899 -15.9 -209.2 -48.1
19.030 19.028 -36.713997 -176.457 -38.899 -15.9 -209.2 -48.1
19.039 19.038 -37.406 -175.517 -43.621 -15.9 -209.2 -48.1
19.049 19.048 -37.406 -175.517 -43.621 -15.9 -209.2 -48.1
19.059 19.058 -36.665 -176.028 -49.893997 -15.9 -209.2 -48.1
19.069 19.068 -36.665 -176.028 -49.893997 -15.9 -209.2 -48.1
19.079 19.078 -37.445 -176.97699 -52.411 -15.9 -209.2 -48.1
19.089 19.088 -37.445 -176.97699 -52.411 -15.9 -209.2 -48.1
19.099 19.098 -37.331 -178.204 -56.805 -15.9 -209.2 -48.1
19.109 19.108 -37.331 -178.204 -56.805 -15.9 -209.2 -48.1
19.119 19.118 -36.045 -180.068 -63.079 -15.9 -209.2 -48.1
19.129 19.128 -36.045 -180.068 -63.079 -15.9 -209.2 -48.1
19.139 19.138 -35.105 -180.81999 -66.529 -15.9 -209.2 -48.1
19.149 19.148 -35.105 -180.81999 -66.529 -15.9 -209.2 -48.1
19.159 19.158 -34.753998 -181.91899 -69.343994 -15.9 -209.2 -48.1
19.169 19.168 -34.753998 -181.91899 -69.343994 -15.9 -209.2 -48.1
19.179 19.178 -34.522 -183.286 -68.709 -15.9 -209.2 -48.1
19.189 19.188 -34.522 -183.286 -68.709 -15.9 -209.2 -48.1
19.199 19.198 -33.307 -183.868 -71.838 -15.9 -209.2 -48.1
19.209 19.208 -33.307 -183.868 -71.838 -15.9 -209.2 -48.1
19.219 19.218 -33.267 -184.985 -74.027 -15.9 -209.2 -48.1
19.229 19.228 -33.267 -184.985 -74.027 -15.9 -209.2 -48.1
19.239 19.238 -32.135002 -185.624 -74.645996 -15.9 -209.2 -48.1
19.249 19.248 -32.135002 -185.624 -74.645996 -15.9 -209.2 -48.1
19.260 19.258 -34.419 -187.472 -74.97 -15.9 -209.2 -48.1
19.269 19.268 -34.419 -187.472 -74.97 -15.9 -209.2 -48.1
19.279 19.278 -33.09 -188.178 -73.071 -15.9 -209.2 -48.1
19.289 19.288 -33.09 -188.178 -73.071 -15.9 -209.2 -48.1
19.299 19.298 -32.761 -188.117 -74.955 -15.9 -209.2 -48.1
19.309 19.308 -32.761 -188.117 -74.955 -15.9 -209.2 -48.1
19.319 19.318 -33.027 -187.26399 -75.272 -15.9 -209.2 -48.1
19.329 19.328 -33.027 -187.26399 -75.272 -15.9 -209.2 -48.1
19.339 19.338 -33.369 -186.806 -73.072 -15.9 -209.2 -48.1
19.349 19.348 -33.369 -186.806 -73.072 -15.9 -209.2 -48.1
19.360 19.358 -33.067 -185.606 -73.39 -15.9 -209.2 -48.1
19.369 19.368 -33.067 -185.606 -73.39 -15.9 -209.2 -48.1
19.379 19.378 -32.844 -184.149 -71.193 -15.9 -209.2 -48.1
19.389 19.388 -32.844 -184.149 -71.193 -15.9 -209.2 -48.1
19.399 19.398 -29.355999 -183.692 -74.922 -15.9 -209.2 -48.1
19.409 19.408 -29.355999 -183.692 -74.922 -15.9 -209.2 -48.1
19.419 19.418 -27.374 -183.808 -75.851 -15.9 -209.2 -48.1
19.429 19.428 -27.374 -183.808 -75.851 -15.9 -209.2 -48.1
19.439 19.438 -25.091 -184.903 -78.022995 -15.9 -209.2 -48.1
19.449 19.448 -25.091 -184.903 -78.022995 -15.9 -209.2 -48.1
19.460 19.458 -21.727 -185.861 -78.599 -14.9 -209.0 -47.4
19.469 19.468 -21.727 -185.861 -78.599 -14.9 -209.0 -47.4
19.479 19.478 -21.114 -186.947 -81.394 -14.9 -209.0 -47.4
19.489 19.488 -21.114 -186.947 -81.394 -14.9 -209.0 -47.4
19.499 19.498 -20.292 -187.242 -81.990005 -14.9 -209.0 -47.4
19.509 19.508 -20.292 -187.242 -81.990005 -14.9 -209.0 -47.4
19.519 19.518 -19.789999 -189.20801 -81.972 -14.9 -209.0 -47.4
19.530 19.528 -19.789999 -189.20801 -81.972 -14.9 -209.0 -47.4
19.539 19.538 -19.862 -191.001 -81.633 -14.9 -209.0 -47.4
19.549 19.548 -19.862 -191.001 -81.633 -14.9 -209.0 -47.4
19.560 19.558 -16.601 -193.697 -83.124 -14.9 -209.0 -47.4
19.569 19.568 -16.601 -193.697 -83.124 -14.9 -209.0 -47.4
19.579 19.578 -14.99 -196.209 -84.93 -14.9 -209.0 -47.4
19.589 19.588 -14.99 -196.209 -84.93 -14.9 -209.0 -47.4
19.600 19.598 -10.622999 -198.396 -87.344 -14.9 -209.0 -47.4
19.609 19.608 -10.622999 -198.396 -87.344 -14.9 -209.0 -47.4
19.619 19.618 -7.1659994 -200.2 -85.838 -14.9 -209.0 -47.4
19.629 19.628 -7.1659994 -200.2 -85.838 -14.9 -209.0 -47.4
19.639 19.638 -3.9259996 -202.98 -85.56 -14.9 -209.0 -47.4
19.649 19.648 -3.9259996 -202.98 -85.56 -14.9 -209.0 -47.4
19.660 19.658 -1.7209997 -204.355 -84.401 -14.9 -209.0 -47.4
19.669 19.668 -1.7209997 -204.355 -84.401 -14.9 -209.0 -47.4
19.680 19.678 -2.4569998 -205.2 -85.374 -14.9 -209.0 -47.4
19.689 19.688 -2.4569998 -205.2 -85.374 -14.9 -209.0 -47.4
19.699 19.698 -3.4259996 -206.197 -87.25 -14.9 -209.0 -47.4
19.709 19.708 -3.4259996 -206.197 -87.25 -14.9 -209.0 -47.4
19.719 19.718 -5.273 -205.782 -87.005005 -14.9 -209.0 -47.4
19.729 19.728 -5.273 -205.782 -87.005005 -14.9 -209.0 -47.4
19.740 19.738 -6.259 -205.63 -88.573 -14.9 -209.0 -47.4
19.751 19.748 -6.259 -205.63 -88.573 -14.9 -209.0 -47.4
19.759 19.758 -6.780999 -204.879 -87.69701 -14.9 -209.0 -47.4
19.769 19.768 -6.780999 -204.879 -87.69701 -14.9 -209.0 -47.4
19.779 19.778 -6.1499996 -203.897 -88.935 -14.9 -209.0 -47.4
19.789 19.788 -6.1499996 -203.897 -88.935 -14.9 -209.0 -47.4
19.799 19.798 -4.2599993 -202.354 -86.504 -14.9 -209.0 -47.4
19.809 19.808 -4.2599993 -202.354 -86.504 -14.9 -209.0 -47.4
19.819 19.818 -2.0809994 -203.196 -85.59801 -14.9 -209.0 -47.4
19.829 19.828 -2.0809994 -203.196 -85.59801 -14.9 -209.0 -47.4
19.839 19.838 1.75 -203.402 -84.673004 -14.9 -209.0 -47.4
19.849 19.848 1.75 -203.402 -84.673004 -14.9 -209.0 -47.4
19.859 19.858 6.6100006 -204.622 -81.296005 -14.9 -209.0 -47.4
19.869 19.868 6.6100006 -204.622 -81.296005 -14.9 -209.0 -47.4
19.879 19.878 12.543001 -205.756 -75.762 -14.9 -209.0 -47.4
19.889 19.888 12.543001 -205.756 -75.762 -14.9 -209.0 -47.4
19.899 19.898 17.739 -207.506 -72.026 -14.9 -209.0 -47.4
19.909 19.908 17.739 -207.506 -72.026 -14.9 -209.0 -47.4
19.919 19.918 18.254 -212.07 -68.611 -14.9 -209.0 -47.4
19.929 19.928 18.254 -212.07 -68.611 -14.9 -209.0 -47.4
19.939 19.938 20.442999 -216.931 -65.78 -13.9 -208.3 -46.8
19.949 19.948 20.442999 -216.931 -65.78 -13.9 -208.3 -46.8
19.960 19.958 18.704 -224.01001 -62.661 -13.9 -208.3 -46.8
19.969 19.968 18.704 -224.01001 -62.661 -13.9 -208.3 -46.8
19.979 19.978 17.215 -229.13501 -58.932 -13.9 -208.3 -46.8
19.989 19.988 17.215 -229.13501 -58.932 -13.9 -208.3 -46.8
19.999 19.998 14.83 -235.011 -53.312 -13.9 -208.3 -46.8
20.009 20.008 14.83 -235.011 -53.312 -13.9 -208.3 -46.8
20.019 20.018 10.208 -239.427 -47.371998 -13.9 -208.3 -46.8
20.029 20.028 10.208 -239.427 -47.371998 -13.9 -208.3 -46.8
20.039 20.038 5.5550003 -242.213 -40.776 -13.9 -208.3 -46.8
20.049 20.048 5.5550003 -242.213 -40.776 -13.9 -208.3 -46.8
20.059 20.058 0.6750002 -243.268 -36.044 -13.9 -208.3 -46.8
20.069 20.068 0.6750002 -243.268 -36.044 -13.9 -208.3 -46.8
20.079 20.078 -3.429 -242.379 -28.802 -13.9 -208.3 -46.8
20.089 20.088 -3.429 -242.379 -28.802 -13.9 -208.3 -46.8
20.099 20.098 -7.7049994 -240.034 -25.313 -13.9 -208.3 -46.8
20.109 20.108 -7.7049994 -240.034 -25.313 -13.9 -208.3 -46.8
20.119 20.118 -13.223 -234.955 -17.130999 -13.9 -208.3 -46.8
20.129 20.128 -13.223 -234.955 -17.130999 -13.9 -208.3 -46.8
20.139 20.138 -14.988 -229.24 -12.370998 -13.9 -208.3 -46.8
20.149 20.148 -14.988 -229.24 -12.370998 -13.9 -208.3 -46.8
20.160 20.158 -14.179999 -223.972 -9.159 -13.9 -208.3 -46.8
20.169 20.168 -14.179999 -223.972 -9.159 -13.9 -208.3 -46.8
20.179 20.178 -16.432999 -217.838 -6.9160004 -13.9 -208.3 -46.8
20.189 20.188 -16.432999 -217.838 -6.9160004 -13.9 -208.3 -46.8
20.199 20.198 -14.945999 -210.285 -6.5369987 -13.9 -208.3 -46.8
20.209 20.208 -14.945999 -210.285 -6.5369987 -13.9 -208.3 -46.8
20.219 20.218 -13.754999 -203.24701 -5.8569984 -13.9 -208.3 -46.8
20.229 20.228 -13.754999 -203.24701 -5.8569984 -13.9 -208.3 -46.8
20.239 20.238 -11.341 -193.451 -7.058998 -13.9 -208.3 -46.8
20.249 20.248 -11.341 -193.451 -7.058998 -13.9 -208.3 -46.8
20.259 20.258 -11.028999 -185.21901 -13.939999 -13.9 -208.3 -46.8
20.269 20.268 -11.028999 -185.21901 -13.939999 -13.9 -208.3 -46.8
20.279 20.278 -10.467999 -178.175 -19.886 -13.9 -208.3 -46.8
20.289 20.288 -10.467999 -178.175 -19.886 -13.9 -208.3 -46.8
20.299 20.298 -9.07 -172.788 -26.463999 -13.9 -208.3 -46.8
20.309 20.308 -9.07 -172.788 -26.463999 -13.9 -208.3 -46.8
20.320 20.318 -7.995 -170.26001 -32.728 -13.2 -207.6 -46.5
20.329 20.328 -7.995 -170.26001 -32.728 -13.2 -207.6 -46.5
20.339 20.338 -7.3599997 -167.82701 -43.098 -13.2 -207.6 -46.5
20.349 20.348 -7.3599997 -167.82701 -43.098 -13.2 -207.6 -46.5
20.360 20.358 -7.7079997 -166.82501 -49.697998 -13.2 -207.6 -46.8
20.369 20.368 -7.7079997 -166.82501 -49.697998 -13.2 -207.6 -46.8
20.379 20.378 -7.5 -168.159 -56.921997 -13.2 -207.6 -46.8
20.389 20.388 -7.5 -168.159 -56.921997 -13.2 -207.6 -46.8
20.399 20.398 -9.309999 -170.707 -63.215 -13.2 -207.6 -46.8
20.409 20.408 -9.309999 -170.707 -63.215 -13.2 -207.6 -46.8
20.419 20.418 -10.246 -174.037 -71.08 -13.2 -207.6 -46.8
20.429 20.428 -10.246 -174.037 -71.08 -13.2 -207.6 -46.8
20.439 20.438 -9.594 -176.792 -75.162 -13.2 -207.6 -46.8
20.449 20.448 -9.594 -176.792 -75.162 -13.2 -207.6 -46.8
20.459 20.458 -9.797 -180.709 -79.576004 -13.2 -207.6 -46.8
20.469 20.468 -9.797 -180.709 -79.576004 -13.2 -207.6 -46.8
20.479 20.478 -11.224999 -184.71701 -80.843 -13.2 -207.6 -46.8
20.489 20.488 -11.224999 -184.71701 -80.843 -13.2 -207.6 -46.8
20.499 20.498 -10.625 -188.179 -83.681 -13.2 -207.6 -46.8
20.509 20.508 -10.625 -188.179 -83.681 -13.2 -207.6 -46.8
20.520 20.518 -10.95 -192.694 -84.632 -13.0 -207.3 -46.7
20.531 20.528 -10.95 -192.694 -84.632 -13.0 -207.3 -46.7
20.539 20.538 -11.5130005 -193.175 -84.957 -13.0 -207.3 -46.7
20.549 20.548 -11.5130005 -193.175 -84.957 -13.0 -207.3 -46.7
20.561 20.558 -13.498 -194.014 -85.291 -13.0 -207.3 -46.7
20.569 20.568 -13.498 -194.014 -85.291 -13.0 -207.3 -46.7
20.579 20.578 -15.802 -195.71701 -84.681 -13.0 -207.3 -46.7
20.589 20.588 -15.802 -195.71701 -84.681 -13.0 -207.3 -46.7
20.599 20.598 -16.017 -196.832 -87.531006 -13.0 -207.3 -46.7
20.609 20.608 -16.017 -196.832 -87.531006 -13.0 -207.3 -46.7
20.619 20.618 -16.042 -199.328 -87.845 -13.0 -207.3 -46.7
20.629 20.628 -16.042 -199.328 -87.845 -13.0 -207.3 -46.7
20.639 20.638 -11.563 -199.657 -87.195 -13.0 -207.3 -46.7
20.649 20.648 -11.563 -199.657 -87.195 -13.0 -207.3 -46.7
20.659 20.658 -6.458 -200.432 -88.731 -13.0 -207.3 -46.7
20.669 20.668 -6.458 -200.432 -88.731 -13.0 -207.3 -46.7
20.679 20.678 -3.6780005 -200.591 -87.773 -13.0 -207.3 -46.7
20.689 20.688 -3.6780005 -200.591 -87.773 -13.0 -207.3 -46.7
20.699 20.698 -1.4049997 -197.897 -87.132 -13.0 -207.3 -46.7
20.709 20.708 -1.4049997 -197.897 -87.132 -13.0 -207.3 -46.7
20.719 20.718 -1.1569996 -196.257 -85.249 -13.0 -207.3 -46.7
20.729 20.728 -1.1569996 -196.257 -85.249 -13.0 -207.3 -46.7
20.739 20.738 0.24100018 -195.899 -85.243 -13.0 -207.3 -46.7
20.749 20.748 0.24100018 -195.899 -85.243 -13.0 -207.3 -46.7
20.759 20.758 3.2719994 -196.076 -83.65 -13.0 -207.3 -46.7
20.769 20.768 3.2719994 -196.076 -83.65 -13.0 -207.3 -46.7
20.779 20.778 7.6900005 -196.934 -81.426 -12.6 -207.3 -46.9
20.789 20.788 7.6900005 -196.934 -81.426 -12.6 -207.3 -46.9
20.799 20.798 12.866999 -198.168 -77.325 -12.6 -207.3 -46.9
20.809 20.808 12.866999 -198.168 -77.325 -12.6 -207.3 -46.9
20.819 20.818 16.109999 -199.04001 -74.501 -12.6 -207.3 -46.9
20.829 20.828 16.109999 -199.04001 -74.501 -12.6 -207.3 -46.9
20.839 20.838 20.928 -202.615 -69.796005 -12.6 -207.3 -46.9
20.849 20.848 20.928 -202.615 -69.796005 -12.6 -207.3 -46.9
20.860 20.858 22.066 -205.883 -64.518005 -14.6 -207.4 -47.2
20.869 20.868 22.066 -205.883 -64.518005 -14.6 -207.4 -47.2
20.879 20.878 24.113 -209.635 -60.795002 -14.6 -207.4 -47.2
20.889 20.888 24.113 -209.635 -60.795002 -14.6 -207.4 -47.2
20.899 20.898 24.12 -214.775 -54.601 -14.6 -207.4 -47.2
20.909 20.908 24.12 -214.775 -54.601 -14.6 -207.4 -47.2
20.919 20.918 22.991 -219.157 -46.214 -14.6 -207.4 -47.2
20.929 20.928 22.991 -219.157 -46.214 -14.6 -207.4 -47.2
20.939 20.938 20.544 -224.372 -39.973 -14.6 -207.4 -47.2
20.949 20.948 20.544 -224.372 -39.973 -14.6 -207.4 -47.2
20.960 20.958 16.362999 -228.00299 -31.211 -14.6 -207.4 -47.2
20.969 20.968 16.362999 -228.00299 -31.211 -14.6 -207.4 -47.2
20.979 20.978 9.757999 -229.747 -25.237001 -14.6 -207.4 -47.2
20.989 20.988 9.757999 -229.747 -25.237001 -14.6 -207.4 -47.2
20.999 20.998 2.5819988 -229.659 -18.94 -14.6 -207.4 -47.2
21.009 21.008 2.5819988 -229.659 -18.94 -14.6 -207.4 -47.2
21.019 21.018 -2.2200003 -227.456 -16.392 -14.6 -207.4 -47.2
21.029 21.028 -2.2200003 -227.456 -16.392 -14.6 -207.4 -47.2
21.040 21.038 -9.106001 -225.80399 -11.035 -14.6 -207.4 -47.2
21.049 21.048 -9.106001 -225.80399 -11.035 -14.6 -207.4 -47.2
21.059 21.058 -14.114 -220.332 -10.695 -15.0 -207.4 -47.6
21.069 21.068 -14.114 -220.332 -10.695 -15.0 -207.4 -47.6
21.079 21.078 -20.028 -214.883 -8.486 -15.0 -207.4 -47.6
21.090 21.088 -20.028 -214.883 -8.486 -15.0 -207.4 -47.6
21.099 21.098 -23.892 -208.194 -8.4679985 -15.0 -207.4 -47.6
21.109 21.108 -23.892 -208.194 -8.4679985 -15.0 -207.4 -47.6
21.119 21.118 -25.185001 -200.958 -9.382 -15.0 -207.4 -47.6
21.129 21.128 -25.185001 -200.958 -9.382 -15.0 -207.4 -47.6
21.139 21.138 -25.324001 -193.845 -11.2369995 -15.0 -207.4 -47.6
21.149 21.148 -25.324001 -193.845 -11.2369995 -15.0 -207.4 -47.6
21.159 21.158 -24.834 -187.026 -14.977997 -15.0 -207.4 -47.6
21.169 21.168 -24.834 -187.026 -14.977997 -15.0 -207.4 -47.6
21.179 21.178 -25.753 -182.04399 -19.687998 -15.0 -207.4 -47.6
21.189 21.188 -25.753 -182.04399 -19.687998 -15.0 -207.4 -47.6
21.199 21.198 -28.26 -176.15599 -27.243998 -15.0 -207.4 -47.6
21.209 21.208 -28.26 -176.15599 -27.243998 -15.0 -207.4 -47.6
21.219 21.218 -30.281 -173.14899 -33.849 -15.0 -207.4 -47.6
21.229 21.228 -30.281 -173.14899 -33.849 -15.0 -207.4 -47.6
21.239 21.238 -32.262 -172.44699 -42.344997 -15.0 -207.4 -47.6
21.249 21.248 -32.262 -172.44699 -42.344997 -15.0 -207.4 -47.6
21.259 21.258 -32.213 -171.686 -52.72 -14.2 -207.5 -47.7
21.269 21.268 -32.213 -171.686 -52.72 -14.2 -207.5 -47.7
21.279 21.278 -30.29 -173.32 -61.189003 -14.2 -207.5 -47.7
21.289 21.288 -30.29 -173.32 -61.189003 -14.2 -207.5 -47.7
21.299 21.298 -26.778 -174.031 -65.873 -14.2 -207.5 -47.7
21.309 21.308 -26.778 -174.031 -65.873 -14.2 -207.5 -47.7
21.319 21.318 -25.839 -175.288 -69.645004 -14.2 -207.5 -47.7
21.329 21.328 -25.839 -175.288 -69.645004 -14.2 -207.5 -47.7
21.339 21.338 -22.445 -176.418 -70.554 -14.2 -207.5 -47.7
21.349 21.348 -22.445 -176.418 -70.554 -14.2 -207.5 -47.7
21.359 21.358 -20.67 -178.67 -74.316 -14.2 -207.5 -47.7
21.369 21.368 -20.67 -178.67 -74.316 -14.2 -207.5 -47.7
21.379 21.378 -18.967 -180.475 -75.874 -14.2 -207.5 -47.7
21.389 21.388 -18.967 -180.475 -75.874 -14.2 -207.5 -47.7
21.399 21.398 -16.4 -181.097 -77.106 -14.2 -207.5 -47.7
21.409 21.408 -16.4 -181.097 -77.106 -14.2 -207.5 -47.7
21.419 21.418 -16.934 -182.067 -79.004 -14.2 -207.5 -47.7
21.429 21.428 -16.934 -182.067 -79.004 -14.2 -207.5 -47.7
21.439 21.438 -16.096 -183.225 -79.313 -14.2 -207.5 -47.7
21.449 21.448 -16.096 -183.225 -79.313 -14.2 -207.5 -47.7
21.459 21.458 -15.847 -184.9 -79.305 -14.2 -207.5 -47.7
21.469 21.468 -15.847 -184.9 -79.305 -14.2 -207.5 -47.7
21.479 21.478 -14.425 -184.875 -79.933 -14.2 -207.5 -47.7
21.489 21.488 -14.425 -184.875 -79.933 -14.2 -207.5 -47.7
21.499 21.498 -15.893 -186.747 -79.0 -14.2 -207.5 -47.7
21.509 21.508 -15.893 -186.747 -79.0 -14.2 -207.5 -47.7
21.519 21.518 -17.551 -186.879 -80.583 -14.2 -207.5 -47.7
21.529 21.528 -17.551 -186.879 -80.583 -14.2 -207.5 -47.7
21.539 21.538 -18.365 -188.014 -82.165 -14.2 -207.5 -47.7
21.549 21.548 -18.365 -188.014 -82.165 -14.2 -207.5 -47.7
21.560 21.558 -18.989 -189.038 -80.915 -14.2 -207.5 -47.7
21.569 21.568 -18.989 -189.038 -80.915 -14.2 -207.5 -47.7
21.579 21.578 -18.432 -189.693 -81.542 -14.2 -207.5 -47.7
21.589 21.588 -18.432 -189.693 -81.542 -14.2 -207.5 -47.7
21.599 21.598 -17.605 -190.683 -81.533005 -14.2 -207.5 -47.7
21.609 21.608 -17.605 -190.683 -81.533005 -14.2 -207.5 -47.7
21.619 21.618 -18.415 -191.969 -83.428 -14.2 -207.5 -47.7
21.629 21.628 -18.415 -191.969 -83.428 -14.2 -207.5 -47.7
21.639 21.638 -19.043999 -193.658 -82.178 -14.2 -207.5 -47.7
21.649 21.648 -19.043999 -193.658 -82.178 -14.2 -207.5 -47.7
21.659 21.658 -20.385 -193.769 -84.375 -14.2 -207.5 -47.7
21.669 21.668 -20.385 -193.769 -84.375 -14.2 -207.5 -47.7
21.679 21.678 -21.216 -194.897 -85.321 -14.2 -207.5 -47.7
21.689 21.688 -21.216 -194.897 -85.321 -14.2 -207.5 -47.7
21.699 21.698 -20.161 -195.919 -83.43 -14.2 -207.5 -47.7
21.709 21.708 -20.161 -195.919 -83.43 -14.2 -207.5 -47.7
21.719 21.718 -18.705 -196.332 -85.603 -14.2 -207.5 -47.7
21.729 21.728 -18.705 -196.332 -85.603 -14.2 -207.5 -47.7
21.740 21.738 -17.012 -196.926 -86.82 -14.2 -207.5 -47.7
21.749 21.748 -17.012 -196.926 -86.82 -14.2 -207.5 -47.7
21.760 21.758 -12.016 -196.84099 -86.767 -13.3 -206.9 -47.7
21.769 21.768 -12.016 -196.84099 -86.767 -13.3 -206.9 -47.7
21.779 21.778 -7.893 -196.60199 -87.032 -13.3 -206.9 -47.7
21.789 21.788 -7.893 -196.60199 -87.032 -13.3 -206.9 -47.7
21.799 21.798 -3.3579998 -197.226 -85.139 -13.3 -206.9 -47.7
21.809 21.808 -3.3579998 -197.226 -85.139 -13.3 -206.9 -47.7
21.819 21.818 0.566 -196.538 -83.288 -13.3 -206.9 -47.7
21.829 21.828 0.566 -196.538 -83.288 -13.3 -206.9 -47.7
21.839 21.838 2.3439999 -196.62799 -83.594 -13.3 -206.9 -47.7
21.849 21.848 2.3439999 -196.62799 -83.594 -13.3 -206.9 -47.7
21.859 21.858 5.9779997 -197.11699 -82.106 -13.3 -206.9 -47.7
21.869 21.868 5.9779997 -197.11699 -82.106 -13.3 -206.9 -47.7
21.879 21.878 11.745999 -199.534 -76.116 -13.3 -206.9 -47.7
21.889 21.888 11.745999 -199.534 -76.116 -13.3 -206.9 -47.7
21.899 21.898 18.477001 -202.89699 -67.917 -13.3 -206.9 -47.7
21.909 21.908 18.477001 -202.89699 -67.917 -13.3 -206.9 -47.7
21.919 21.918 23.793 -209.713 -49.979 -13.3 -206.9 -47.7
21.929 21.928 23.793 -209.713 -49.979 -13.3 -206.9 -47.7
21.939 21.938 22.375 -211.55699 -36.71 -13.3 -206.9 -47.7
21.949 21.948 22.375 -211.55699 -36.71 -13.3 -206.9 -47.7
21.959 21.958 19.617 -213.012 -30.555 -13.3 -206.9 -47.7
21.969 21.968 19.617 -213.012 -30.555 -13.3 -206.9 -47.7
21.979 21.978 15.334001 -211.98999 -22.266 -13.3 -206.9 -47.7
21.989 21.988 15.334001 -211.98999 -22.266 -13.3 -206.9 -47.7
21.999 21.998 9.103999 -209.379 -16.209002 -13.3 -206.9 -47.7
22.009 22.008 9.103999 -209.379 -16.209002 -13.3 -206.9 -47.7
22.019 22.018 2.0339994 -206.04599 -11.4260025 -13.3 -206.9 -47.7
22.029 22.028 2.0339994 -206.04599 -11.4260025 -13.3 -206.9 -47.7
22.039 22.038 -0.97000027 -200.394 -10.716999 -13.3 -206.9 -47.7
22.049 22.048 -0.97000027 -200.394 -10.716999 -13.3 -206.9 -47.7
22.059 22.058 -2.2700005 -196.519 -12.228001 -13.3 -206.9 -47.7
22.069 22.068 -2.2700005 -196.519 -12.228001 -13.3 -206.9 -47.7
22.079 22.078 -0.3920002 -191.05899 -15.922001 -13.3 -206.9 -47.7
22.089 22.088 -0.3920002 -191.05899 -15.922001 -13.3 -206.9 -47.7
22.099 22.098 0.07999992 -184.76999 -19.336 -13.3 -206.9 -47.7
22.109 22.108 0.07999992 -184.76999 -19.336 -13.3 -206.9 -47.7
22.120 22.118 0.89900017 -179.746 -25.272001 -13.3 -206.9 -47.7
22.129 22.128 0.89900017 -179.746 -25.272001 -13.3 -206.9 -47.7
22.139 22.138 1.1519995 -175.903 -31.533 -13.3 -206.9 -47.7
22.149 22.148 1.1519995 -175.903 -31.533 -13.3 -206.9 -47.7
22.160 22.158 0.73099995 -173.14 -34.663002 -13.3 -206.9 -47.7
22.169 22.168 0.73099995 -173.14 -34.663002 -13.3 -206.9 -47.7
22.179 22.178 -0.4790001 -172.174 -40.625 -15.1 -208.4 -47.9
22.189 22.188 -0.4790001 -172.174 -40.625 -15.1 -208.4 -47.9
22.199 22.198 -2.2390003 -170.861 -46.598 -15.1 -208.4 -47.9
22.209 22.208 -2.2390003 -170.861 -46.598 -15.1 -208.4 -47.9
22.219 22.218 -3.1970005 -170.907 -51.936 -15.1 -208.4 -47.9
22.229 22.228 -3.1970005 -170.907 -51.936 -15.1 -208.4 -47.9
22.239 22.238 -3.479 -172.512 -61.667 -15.1 -208.4 -47.9
22.249 22.248 -3.479 -172.512 -61.667 -15.1 -208.4 -47.9
22.259 22.258 -6.7560005 -174.79099 -65.448 -15.1 -208.4 -47.9
22.269 22.268 -6.7560005 -174.79099 -65.448 -15.1 -208.4 -47.9
22.280 22.278 -10.211 -178.47699 -73.311005 -15.1 -208.4 -47.9
22.289 22.288 -10.211 -178.47699 -73.311005 -15.1 -208.4 -47.9
22.299 22.298 -12.953 -181.09099 -76.458 -15.1 -208.4 -47.9
22.309 22.308 -12.953 -181.09099 -76.458 -15.1 -208.4 -47.9
22.319 22.318 -14.901 -182.24799 -77.413 -15.1 -208.4 -47.9
22.329 22.328 -14.901 -182.24799 -77.413 -15.1 -208.4 -47.9
22.339 22.338 -17.426 -184.088 -78.367004 -15.1 -208.4 -47.9
22.349 22.348 -17.426 -184.088 -78.367004 -15.1 -208.4 -47.9
22.360 22.358 -14.620001 -184.411 -78.340004 -15.1 -208.4 -47.9
22.369 22.368 -14.620001 -184.411 -78.340004 -15.1 -208.4 -47.9
22.379 22.378 -12.886001 -186.677 -80.831 -15.1 -208.4 -47.9
22.389 22.388 -12.886001 -186.677 -80.831 -15.1 -208.4 -47.9
22.399 22.398 -11.788 -188.34799 -80.818 -15.1 -208.4 -47.9
22.409 22.408 -11.788 -188.34799 -80.818 -15.1 -208.4 -47.9
22.419 22.418 -11.217001 -191.484 -82.382 -15.1 -208.4 -47.9
22.429 22.428 -11.217001 -191.484 -82.382 -15.1 -208.4 -47.9
22.439 22.438 -11.729 -195.271 -85.832 -15.3 -208.8 -47.8
22.449 22.448 -11.729 -195.271 -85.832 -15.3 -208.8 -47.8
22.459 22.458 -13.231 -199.491 -84.904 -15.3 -208.8 -47.8
22.469 22.468 -13.231 -199.491 -84.904 -15.3 -208.8 -47.8
22.479 22.478 -13.202 -201.623 -87.114 -15.3 -208.8 -47.8
22.489 22.488 -13.202 -201.623 -87.114 -15.3 -208.8 -47.8
22.499 22.498 -14.353001 -203.299 -87.137 -15.3 -208.8 -47.8
22.509 22.508 -14.353001 -203.299 -87.137 -15.3 -208.8 -47.8
22.519 22.518 -14.652 -202.80101 -86.834 -15.3 -208.8 -47.8
22.530 22.528 -14.652 -202.80101 -86.834 -15.3 -208.8 -47.8
22.539 22.538 -13.791 -202.113 -87.472 -15.3 -208.8 -47.8
22.549 22.548 -13.791 -202.113 -87.472 -15.3 -208.8 -47.8
22.559 22.558 -14.641 -201.27501 -87.175 -15.3 -208.8 -47.8
22.569 22.568 -14.641 -201.27501 -87.175 -15.3 -208.8 -47.8
22.579 22.578 -14.37 -199.938 -86.55 -15.3 -208.8 -47.8
22.589 22.588 -14.37 -199.938 -86.55 -15.3 -208.8 -47.8
22.599 22.598 -12.957001 -198.918 -86.546 -15.3 -208.8 -47.8
22.609 22.608 -12.957001 -198.918 -86.546 -15.3 -208.8 -47.8
22.619 22.618 -10.139 -197.549 -86.53 -15.3 -208.8 -47.8
22.629 22.628 -10.139 -197.549 -86.53 -15.3 -208.8 -47.8
22.639 22.638 -4.5510006 -195.876 -85.238 -15.3 -208.8 -47.8
22.649 22.648 -4.5510006 -195.876 -85.238 -15.3 -208.8 -47.8
22.659 22.658 -0.19000053 -195.91101 -82.093 -15.3 -208.8 -47.8
22.669 22.668 -0.19000053 -195.91101 -82.093 -15.3 -208.8 -47.8
22.679 22.678 4.231 -196.724 -81.746 -15.3 -208.8 -47.8
22.689 22.688 4.231 -196.724 -81.746 -15.3 -208.8 -47.8
22.699 22.698 7.481 -198.88 -80.806 -15.3 -208.8 -47.8
22.709 22.708 7.481 -198.88 -80.806 -15.3 -208.8 -47.8
22.719 22.718 10.373 -203.86101 -78.944 -15.3 -208.8 -47.8
22.730 22.728 10.373 -203.86101 -78.944 -15.3 -208.8 -47.8
22.739 22.738 13.468999 -210.546 -75.229004 -15.3 -208.8 -47.8
22.749 22.748 13.468999 -210.546 -75.229004 -15.3 -208.8 -47.8
22.760 22.758 15.221999 -217.683 -73.089 -15.3 -208.8 -47.8
22.769 22.768 15.221999 -217.683 -73.089 -15.3 -208.8 -47.8
22.779 22.778 14.358001 -225.133 -66.341995 -15.3 -208.8 -47.8
22.789 22.788 14.358001 -225.133 -66.341995 -15.3 -208.8 -47.8
22.799 22.798 14.099 -231.998 -59.535 -15.3 -208.8 -47.8
22.809 22.808 14.099 -231.998 -59.535 -15.3 -208.8 -47.8
22.819 22.818 11.077001 -237.457 -51.77 -15.3 -208.8 -47.8
22.829 22.828 11.077001 -237.457 -51.77 -15.3 -208.8 -47.8
22.839 22.838 7.8 -240.309 -43.933 -15.3 -208.8 -47.8
22.849 22.848 7.8 -240.309 -43.933 -15.3 -208.8 -47.8
22.860 22.858 5.3450003 -240.337 -35.124 -15.3 -208.8 -47.8
22.869 22.868 5.3450003 -240.337 -35.124 -15.3 -208.8 -47.8
22.879 22.878 3.2149992 -238.638 -27.529 -15.3 -208.8 -47.8
22.889 22.888 3.2149992 -238.638 -27.529 -15.3 -208.8 -47.8
22.899 22.898 2.0080004 -233.16501 -21.803 -15.3 -208.8 -47.8
22.909 22.908 2.0080004 -233.16501 -21.803 -15.3 -208.8 -47.8
22.919 22.918 0.8060007 -224.67801 -14.827 -15.3 -208.8 -47.8
22.929 22.928 0.8060007 -224.67801 -14.827 -15.3 -208.8 -47.8
22.939 22.938 2.0040007 -213.702 -12.235001 -15.3 -208.8 -47.8
22.949 22.948 2.0040007 -213.702 -12.235001 -15.3 -208.8 -47.8
22.960 22.958 2.429 -201.989 -11.547001 -15.3 -208.8 -47.8
22.969 22.968 2.429 -201.989 -11.547001 -15.3 -208.8 -47.8
22.979 22.978 2.4359999 -191.139 -15.890999 -15.3 -208.8 -47.8
22.989 22.988 2.4359999 -191.139 -15.890999 -15.3 -208.8 -47.8
22.999 22.998 -1.526 -176.806 -26.559 -15.3 -208.8 -47.8
23.009 23.008 -1.526 -176.806 -26.559 -15.3 -208.8 -47.8
23.019 23.018 -7.2799997 -170.839 -37.887 -15.3 -208.8 -47.8
23.029 23.028 -7.2799997 -170.839 -37.887 -15.3 -208.8 -47.8
23.039 23.038 -12.213 -167.539 -49.85 -15.3 -208.8 -47.8
23.049 23.048 -12.213 -167.539 -49.85 -15.3 -208.8 -47.8
23.059 23.058 -17.725 -168.785 -54.278 -15.3 -208.8 -47.8
23.069 23.068 -17.725 -168.785 -54.278 -15.3 -208.8 -47.8
23.079 23.078 -18.572 -168.771 -54.279 -15.3 -208.8 -47.8
23.089 23.088 -18.572 -168.771 -54.279 -15.3 -208.8 -47.8
23.099 23.098 -17.443 -169.753 -54.896 -15.3 -208.8 -47.8
23.109 23.108 -17.443 -169.753 -54.896 -15.3 -208.8 -47.8
23.119 23.118 -18.517 -170.04001 -56.774 -15.3 -208.8 -47.8
23.129 23.128 -18.517 -170.04001 -56.774 -15.3 -208.8 -47.8
23.139 23.138 -20.644001 -171.938 -61.810997 -15.3 -208.8 -47.8
23.149 23.148 -20.644001 -171.938 -61.810997 -15.3 -208.8 -47.8
23.159 23.158 -23.615 -175.009 -67.179 -15.3 -208.8 -47.8
23.169 23.168 -23.615 -175.009 -67.179 -15.3 -208.8 -47.8
23.179 23.178 -25.763 -180.257 -72.845 -15.3 -208.8 -47.8
23.189 23.188 -25.763 -180.257 -72.845 -15.3 -208.8 -47.8
23.199 23.198 -26.283 -185.545 -76.616 -15.3 -208.8 -47.8
23.209 23.208 -26.283 -185.545 -76.616 -15.3 -208.8 -47.8
23.219 23.218 -29.707 -189.739 -76.96 -14.3 -208.2 -47.5
23.229 23.228 -29.707 -189.739 -76.96 -14.3 -208.2 -47.5
23.239 23.238 -34.573 -194.305 -76.673004 -14.3 -208.2 -47.5
23.249 23.248 -34.573 -194.305 -76.673004 -14.3 -208.2 -47.5
23.259 23.258 -38.056 -198.883 -75.761 -13.2 -208.0 -47.5
23.269 23.268 -38.056 -198.883 -75.761 -13.2 -208.0 -47.5
23.279 23.278 -38.1 -204.238 -77.024 -13.2 -208.0 -47.5
23.290 23.288 -38.1 -204.238 -77.024 -13.2 -208.0 -47.5
23.299 23.298 -37.576 -207.419 -77.334 -13.2 -208.0 -47.5
23.309 23.308 -37.576 -207.419 -77.334 -13.2 -208.0 -47.5
23.319 23.318 -38.485 -210.452 -77.336 -13.2 -208.0 -47.5
23.329 23.328 -38.485 -210.452 -77.336 -13.2 -208.0 -47.5
23.339 23.338 -37.343998 -210.929 -78.281 -13.2 -208.0 -47.5
23.349 23.348 -37.343998 -210.929 -78.281 -13.2 -208.0 -47.5
23.360 23.358 -35.915 -210.729 -79.206 -13.2 -208.0 -47.5
23.369 23.368 -35.915 -210.729 -79.206 -13.2 -208.0 -47.5
23.379 23.378 -33.053 -211.5 -81.394 -13.2 -208.0 -47.5
23.390 23.388 -33.053 -211.5 -81.394 -13.2 -208.0 -47.5
23.399 23.398 -31.918999 -212.985 -82.33 -13.2 -208.0 -47.5
23.409 23.408 -31.918999 -212.985 -82.33 -13.2 -208.0 -47.5
23.420 23.418 -28.539 -215.282 -83.563995 -13.2 -208.0 -47.5
23.429 23.428 -28.539 -215.282 -83.563995 -13.2 -208.0 -47.5
23.439 23.438 -27.413 -217.099 -84.5 -13.2 -208.0 -47.5
23.449 23.448 -27.413 -217.099 -84.5 -13.2 -208.0 -47.5
23.459 23.458 -26.019001 -218.249 -84.811005 -13.2 -208.0 -47.5
23.469 23.468 -26.019001 -218.249 -84.811005 -13.2 -208.0 -47.5
23.479 23.478 -24.911999 -218.065 -84.486 -13.2 -208.0 -47.5
23.489 23.488 -24.911999 -218.065 -84.486 -13.2 -208.0 -47.5
23.499 23.498 -26.019001 -217.701 -85.126 -13.2 -208.0 -47.5
23.509 23.508 -26.019001 -217.701 -85.126 -13.2 -208.0 -47.5
23.519 23.518 -28.620998 -216.591 -82.334 -13.2 -208.0 -47.5
23.529 23.528 -28.620998 -216.591 -82.334 -13.2 -208.0 -47.5
23.539 23.538 -31.408 -216.224 -82.984 -13.2 -208.0 -47.5
23.549 23.548 -31.408 -216.224 -82.984 -13.2 -208.0 -47.5
23.559 23.558 -32.518 -214.874 -82.999 -13.2 -208.0 -47.5
23.569 23.568 -32.518 -214.874 -82.999 -13.2 -208.0 -47.5
23.579 23.578 -31.926998 -214.16 -83.626 -13.2 -208.0 -47.5
23.589 23.588 -31.926998 -214.16 -83.626 -13.2 -208.0 -47.5
23.599 23.598 -33.399 -213.876 -81.137 -13.2 -208.0 -47.5
23.609 23.608 -33.399 -213.876 -81.137 -13.2 -208.0 -47.5
23.619 23.618 -30.483002 -211.281 -84.556 -13.2 -208.0 -47.5
23.629 23.628 -30.483002 -211.281 -84.556 -13.2 -208.0 -47.5
23.639 23.638 -28.784 -209.929 -85.165 -13.2 -208.0 -47.5
23.649 23.648 -28.784 -209.929 -85.165 -13.2 -208.0 -47.5
23.659 23.658 -26.23 -207.911 -86.378 -13.2 -208.0 -47.5
23.669 23.668 -26.23 -207.911 -86.378 -13.2 -208.0 -47.5
23.679 23.678 -25.979 -206.619 -85.755005 -13.2 -208.0 -47.5
23.689 23.688 -25.979 -206.619 -85.755005 -13.2 -208.0 -47.5
23.699 23.698 -24.33 -207.106 -86.647 -13.2 -208.0 -47.5
23.709 23.708 -24.33 -207.106 -86.647 -13.2 -208.0 -47.5
23.719 23.718 -23.824 -205.513 -86.621 -13.2 -208.0 -47.5
23.729 23.728 -23.824 -205.513 -86.621 -13.2 -208.0 -47.5
23.739 23.738 -23.605 -205.544 -87.779 -13.2 -208.0 -47.5
23.749 23.748 -23.605 -205.544 -87.779 -13.2 -208.0 -47.5
23.759 23.758 -21.053 -204.524 -87.994995 -13.2 -208.0 -47.5
23.769 23.768 -21.053 -204.524 -87.994995 -13.2 -208.0 -47.5
23.779 23.778 -17.829 -204.643 -87.334 -13.2 -208.0 -47.5
23.789 23.788 -17.829 -204.643 -87.334 -13.2 -208.0 -47.5
23.799 23.798 -14.787 -203.781 -88.446 -13.2 -208.0 -47.5
23.809 23.808 -14.787 -203.781 -88.446 -13.2 -208.0 -47.5
23.819 23.818 -10.169001 -204.62001 -86.461 -13.3 -208.1 -47.6
23.829 23.828 -10.169001 -204.62001 -86.461 -13.3 -208.1 -47.6
23.839 23.838 -5.507 -205.216 -86.479996 -13.3 -208.1 -47.6
23.849 23.848 -5.507 -205.216 -86.479996 -13.3 -208.1 -47.6
23.859 23.858 -0.7959995 -207.36699 -84.770996 -13.5 -207.9 -47.9
23.869 23.868 -0.7959995 -207.36699 -84.770996 -13.5 -207.9 -47.9
23.879 23.878 4.349001 -211.312 -83.86301 -13.5 -207.9 -47.9
23.889 23.888 4.349001 -211.312 -83.86301 -13.5 -207.9 -47.9
23.899 23.898 8.551001 -217.24799 -77.82 -13.5 -207.9 -47.9
23.909 23.908 8.551001 -217.24799 -77.82 -13.5 -207.9 -47.9
23.919 23.918 13.561001 -222.84099 -70.107 -13.5 -207.9 -47.9
23.929 23.928 13.561001 -222.84099 -70.107 -13.5 -207.9 -47.9
23.939 23.938 15.504999 -229.23099 -61.054 -13.5 -207.9 -47.9
23.949 23.948 15.504999 -229.23099 -61.054 -13.5 -207.9 -47.9
23.959 23.958 14.929001 -233.51799 -52.867 -13.5 -207.9 -47.9
23.969 23.968 14.929001 -233.51799 -52.867 -13.5 -207.9 -47.9
23.979 23.978 12.615999 -237.47699 -45.272003 -13.5 -207.9 -47.9
23.989 23.988 12.615999 -237.47699 -45.272003 -13.5 -207.9 -47.9
23.999 23.998 8.007999 -238.463 -36.434002 -13.5 -207.9 -47.9
24.009 24.008 8.007999 -238.463 -36.434002 -13.5 -207.9 -47.9
24.019 24.018 2.7589998 -238.141 -26.329998 -13.3 -208.0 -47.6
24.029 24.028 2.7589998 -238.141 -26.329998 -13.3 -208.0 -47.6
24.040 24.038 -0.9790001 -234.511 -19.654 -13.3 -208.0 -47.6
24.049 24.048 -0.9790001 -234.511 -19.654 -13.3 -208.0 -47.6
24.060 24.058 -6.0880003 -229.33 -14.5739975 -13.3 -208.0 -47.6
24.069 24.068 -6.0880003 -229.33 -14.5739975 -13.3 -208.0 -47.6
24.079 24.078 -9.196 -221.422 -10.111 -13.3 -208.0 -47.6
24.089 24.088 -9.196 -221.422 -10.111 -13.3 -208.0 -47.6
24.099 24.098 -14.177 -209.596 -7.244999 -13.3 -208.0 -47.6
24.109 24.108 -14.177 -209.596 -7.244999 -13.3 -208.0 -47.6
24.119 24.118 -13.768001 -201.024 -7.489998 -13.3 -208.0 -47.6
24.129 24.128 -13.768001 -201.024 -7.489998 -13.3 -208.0 -47.6
24.139 24.138 -13.606 -194.399 -9.646 -13.3 -208.0 -47.6
24.149 24.148 -13.606 -194.399 -9.646 -13.3 -208.0 -47.6
24.160 24.158 -12.818 -187.055 -13.692997 -13.3 -208.0 -47.6
24.169 24.168 -12.818 -187.055 -13.692997 -13.3 -208.0 -47.6
24.179 24.178 -13.431 -180.385 -18.384998 -13.3 -208.0 -47.6
24.189 24.188 -13.431 -180.385 -18.384998 -13.3 -208.0 -47.6
24.199 24.198 -15.942 -175.15399 -25.937998 -13.3 -208.0 -47.6
24.209 24.208 -15.942 -175.15399 -25.937998 -13.3 -208.0 -47.6
24.219 24.218 -18.822 -171.504 -31.286999 -13.3 -208.0 -47.3
24.229 24.228 -18.822 -171.504 -31.286999 -13.3 -208.0 -47.3
24.239 24.238 -20.818 -169.972 -38.848 -13.3 -208.0 -47.3
24.249 24.248 -20.818 -169.972 -38.848 -13.3 -208.0 -47.3
24.259 24.258 -21.206001 -168.502 -43.868 -13.3 -208.0 -47.3
24.269 24.268 -21.206001 -168.502 -43.868 -13.3 -208.0 -47.3
24.279 24.278 -18.262001 -169.051 -48.243 -13.3 -208.0 -47.3
24.289 24.288 -18.262001 -169.051 -48.243 -13.3 -208.0 -47.3
24.299 24.298 -14.695 -169.055 -54.19 -13.8 -208.2 -47.5
24.309 24.308 -14.695 -169.055 -54.19 -13.8 -208.2 -47.5
24.319 24.318 -12.069 -168.79999 -56.996002 -13.8 -208.2 -47.5
24.329 24.328 -12.069 -168.79999 -56.996002 -13.8 -208.2 -47.5
24.339 24.338 -11.261 -169.999 -56.045 -13.8 -208.2 -47.5
24.349 24.348 -11.261 -169.999 -56.045 -13.8 -208.2 -47.5
24.360 24.358 -10.702 -169.985 -56.027 -13.8 -208.2 -47.5
24.370 24.368 -10.702 -169.985 -56.027 -13.8 -208.2 -47.5
24.379 24.378 -9.349 -169.524 -53.813 -13.8 -208.2 -47.5
24.389 24.388 -9.349 -169.524 -53.813 -13.8 -208.2 -47.5
24.399 24.398 -8.264 -169.551 -52.532 -13.8 -208.2 -47.5
24.409 24.408 -8.264 -169.551 -52.532 -13.8 -208.2 -47.5
24.419 24.418 -6.4160004 -169.469 -48.42 -13.8 -208.2 -47.5
24.429 24.428 -6.4160004 -169.469 -48.42 -13.8 -208.2 -47.5
24.439 24.438 -5.7320004 -169.58499 -43.375 -13.8 -208.2 -47.5
24.449 24.448 -5.7320004 -169.58499 -43.375 -13.8 -208.2 -47.5
24.460 24.458 -8.007 -171.648 -34.27 -13.8 -208.2 -47.5
24.469 24.468 -8.007 -171.648 -34.27 -13.8 -208.2 -47.5
24.479 24.478 -9.33 -173.959 -28.929 -13.8 -208.2 -47.5
24.489 24.488 -9.33 -173.959 -28.929 -13.8 -208.2 -47.5
24.499 24.498 -11.027 -177.836 -21.387 -13.3 -208.2 -47.3
24.509 24.508 -11.027 -177.836 -21.387 -13.3 -208.2 -47.3
24.519 24.518 -14.552 -182.77899 -18.585 -13.3 -208.2 -47.3
24.529 24.528 -14.552 -182.77899 -18.585 -13.3 -208.2 -47.3
24.539 24.538 -16.49 -187.944 -12.944 -13.3 -208.2 -47.3
24.549 24.548 -16.49 -187.944 -12.944 -13.3 -208.2 -47.3
24.560 24.558 -19.951 -192.98999 -12.3429985 -13.3 -208.2 -47.3
24.569 24.568 -19.951 -192.98999 -12.3429985 -13.3 -208.2 -47.3
24.579 24.578 -20.626 -196.204 -10.163998 -13.3 -208.2 -47.3
24.589 24.588 -20.626 -196.204 -10.163998 -13.3 -208.2 -47.3
24.599 24.598 -22.86 -198.00299 -11.137001 -13.3 -208.2 -47.3
24.609 24.608 -22.86 -198.00299 -11.137001 -13.3 -208.2 -47.3
24.619 24.618 -25.749 -202.01599 -9.919998 -13.3 -208.2 -47.3
24.629 24.628 -25.749 -202.01599 -9.919998 -13.3 -208.2 -47.3
24.639 24.638 -28.237999 -204.609 -11.833 -13.3 -208.2 -47.3
24.649 24.648 -28.237999 -204.609 -11.833 -13.3 -208.2 -47.3
24.659 24.658 -29.987999 -207.272 -10.6189995 -13.3 -208.2 -47.3
24.669 24.668 -29.987999 -207.272 -10.6189995 -13.3 -208.2 -47.3
24.679 24.678 -31.654 -210.39 -12.194 -13.3 -208.2 -47.3
24.689 24.688 -31.654 -210.39 -12.194 -13.3 -208.2 -47.3
24.699 24.698 -35.538002 -213.027 -14.721001 -13.3 -208.2 -47.3
24.709 24.708 -35.538002 -213.027 -14.721001 -13.3 -208.2 -47.3
24.719 24.718 -38.864 -216.152 -18.166998 -14.7 -208.5 -47.6
24.729 24.728 -38.864 -216.152 -18.166998 -14.7 -208.5 -47.6
24.739 24.738 -40.581 -219.016 -19.105999 -14.7 -208.5 -47.6
24.749 24.748 -40.581 -219.016 -19.105999 -14.7 -208.5 -47.6
24.759 24.758 -43.31 -220.981 -23.499998 -14.7 -208.5 -47.6
24.769 24.768 -43.31 -220.981 -23.499998 -14.7 -208.5 -47.6
24.779 24.778 -45.419 -222.919 -29.134 -13.7 -208.3 -47.4
24.789 24.788 -45.419 -222.919 -29.134 -13.7 -208.3 -47.4
24.799 24.798 -45.917 -224.216 -32.892002 -13.7 -208.3 -47.4
24.809 24.808 -45.917 -224.216 -32.892002 -13.7 -208.3 -47.4
24.819 24.818 -47.596 -226.071 -34.477 -13.7 -208.3 -47.4
24.829 24.828 -47.596 -226.071 -34.477 -13.7 -208.3 -47.4
24.839 24.838 -48.659 -227.051 -37.617 -13.7 -208.3 -47.4
24.849 24.848 -48.659 -227.051 -37.617 -13.7 -208.3 -47.4
24.859 24.858 -49.173 -227.362 -40.132 -13.7 -208.3 -47.4
24.869 24.868 -49.173 -227.362 -40.132 -13.7 -208.3 -47.4
24.879 24.878 -50.179 -226.29901 -43.897003 -13.7 -208.3 -47.4
24.889 24.888 -50.179 -226.29901 -43.897003 -13.7 -208.3 -47.4
24.899 24.898 -50.074 -226.23001 -47.66 -13.7 -208.3 -47.4
24.909 24.908 -50.074 -226.23001 -47.66 -13.7 -208.3 -47.4
24.919 24.918 -50.313 -226.87 -49.538002 -13.7 -208.3 -47.4
24.929 24.928 -50.313 -226.87 -49.538002 -13.7 -208.3 -47.4
24.939 24.938 -49.917 -226.134 -53.299004 -13.7 -208.3 -47.4
24.949 24.948 -49.917 -226.134 -53.299004 -13.7 -208.3 -47.4
24.960 24.958 -48.440002 -227.069 -56.414 -13.7 -208.3 -47.4
24.969 24.968 -48.440002 -227.069 -56.414 -13.7 -208.3 -47.4
24.979 24.978 -48.41 -228.381 -58.29 -13.7 -208.3 -47.4
24.989 24.988 -48.41 -228.381 -58.29 -13.7 -208.3 -47.4
24.999 24.998 -47.489002 -227.989 -60.788002 -13.7 -208.3 -47.4
25.009 25.008 -47.489002 -227.989 -60.788002 -13.7 -208.3 -47.4
25.019 25.018 -45.164 -229.586 -64.523 -13.7 -208.3 -47.4
25.029 25.028 -45.164 -229.586 -64.523 -13.7 -208.3 -47.4
25.040 25.038 -44.669 -230.963 -63.259003 -13.7 -208.3 -47.4
25.049 25.048 -44.669 -230.963 -63.259003 -13.7 -208.3 -47.4
25.060 25.058 -42.157 -232.955 -63.858 -13.7 -208.3 -47.4
25.069 25.068 -42.157 -232.955 -63.858 -13.7 -208.3 -47.4
25.079 25.078 -40.31 -236.84201 -62.283 -13.7 -208.3 -47.4
25.090 25.088 -40.31 -236.84201 -62.283 -13.7 -208.3 -47.4
25.100 25.098 -36.371002 -239.793 -64.758 -14.5 -208.6 -47.7
25.109 25.108 -36.371002 -239.793 -64.758 -14.5 -208.6 -47.7
25.119 25.118 -33.371002 -242.324 -63.806 -14.5 -208.6 -47.7
25.129 25.128 -33.371002 -242.324 -63.806 -14.5 -208.6 -47.7
25.139 25.138 -28.42 -244.52701 -62.217003 -14.5 -208.6 -47.7
25.149 25.148 -28.42 -244.52701 -62.217003 -14.5 -208.6 -47.7
25.161 25.158 -25.042 -246.984 -64.391 -14.3 -208.9 -47.7
25.169 25.168 -25.042 -246.984 -64.391 -14.3 -208.9 -47.7
25.179 25.178 -19.529 -248.023 -62.485 -14.3 -208.9 -47.7
25.189 25.188 -19.529 -248.023 -62.485 -14.3 -208.9 -47.7
25.199 25.198 -8.167 -247.728 -59.303 -14.3 -208.9 -47.7
25.209 25.208 -8.167 -247.728 -59.303 -14.3 -208.9 -47.7
25.219 25.218 -3.7340002 -248.42 -58.045002 -14.3 -208.9 -47.7
25.229 25.228 -3.7340002 -248.42 -58.045002 -14.3 -208.9 -47.7
25.239 25.238 -2.698 -248.342 -55.258 -14.3 -208.9 -47.7
25.249 25.248 -2.698 -248.342 -55.258 -14.3 -208.9 -47.7
25.260 25.258 -1.0710001 -249.06 -53.395 -14.3 -208.9 -47.7
25.269 25.268 -1.0710001 -249.06 -53.395 -14.3 -208.9 -47.7
25.279 25.278 -1.1809998 -248.01099 -49.357002 -14.3 -208.9 -47.7
25.289 25.288 -1.1809998 -248.01099 -49.357002 -14.3 -208.9 -47.7
25.299 25.298 -1.3640003 -247.681 -42.824 -14.3 -208.9 -47.7
25.309 25.308 -1.3640003 -247.681 -42.824 -14.3 -208.9 -47.7
25.319 25.318 -1.1960001 -246.644 -38.158 -14.3 -208.9 -47.7
25.329 25.328 -1.1960001 -246.644 -38.158 -14.3 -208.9 -47.7
25.339 25.338 -1.5310001 -244.92099 -34.13 -13.1 -209.4 -48.5
25.349 25.348 -1.5310001 -244.92099 -34.13 -13.1 -209.4 -48.5
25.360 25.358 -2.7850008 -244.077 -28.525 -13.1 -209.4 -48.5
25.369 25.368 -2.7850008 -244.077 -28.525 -13.1 -209.4 -48.5
25.379 25.378 -6.4720006 -242.35399 -25.116 -13.1 -209.4 -48.5
25.389 25.388 -6.4720006 -242.35399 -25.116 -13.1 -209.4 -48.5
25.399 25.398 -13.592 -239.04199 -18.602 -13.1 -209.4 -48.5
25.409 25.408 -13.592 -239.04199 -18.602 -13.1 -209.4 -48.5
25.419 25.418 -21.069 -235.073 -18.635 -13.1 -209.4 -48.5
25.429 25.428 -21.069 -235.073 -18.635 -13.1 -209.4 -48.5
25.439 25.438 -26.943 -231.799 -16.789 -13.1 -209.4 -48.5
25.449 25.448 -26.943 -231.799 -16.789 -13.1 -209.4 -48.5
25.459 25.458 -29.45 -227.17899 -14.908001 -13.1 -209.4 -48.5
25.469 25.468 -29.45 -227.17899 -14.908001 -13.1 -209.4 -48.5
25.479 25.478 -29.968 -222.68999 -13.942001 -13.1 -209.4 -48.5
25.489 25.488 -29.968 -222.68999 -13.942001 -13.1 -209.4 -48.5
25.499 25.498 -31.562 -216.32599 -13.918999 -13.1 -209.4 -48.5
25.509 25.508 -31.562 -216.32599 -13.918999 -13.1 -209.4 -48.5
25.520 25.518 -32.599 -207.804 -12.952 -13.1 -209.4 -48.5
25.529 25.528 -32.599 -207.804 -12.952 -13.1 -209.4 -48.5
25.539 25.538 -36.336 -201.865 -16.387997 -13.0 -209.6 -48.6
25.549 25.548 -36.336 -201.865 -16.387997 -13.0 -209.6 -48.6
25.560 25.558 -33.372 -194.40701 -18.215998 -13.0 -209.6 -48.6
25.569 25.568 -33.372 -194.40701 -18.215998 -13.0 -209.6 -48.6
25.579 25.578 -31.908 -189.664 -18.175999 -13.0 -209.6 -48.6
25.589 25.588 -31.908 -189.664 -18.175999 -13.0 -209.6 -48.6
25.599 25.598 -33.092 -184.144 -23.175001 -13.3 -209.5 -47.7
25.609 25.608 -33.092 -184.144 -23.175001 -13.3 -209.5 -47.7
25.619 25.618 -31.765 -181.124 -28.480001 -13.3 -209.5 -47.7
25.629 25.628 -31.765 -181.124 -28.480001 -13.3 -209.5 -47.7
25.639 25.638 -29.078 -176.643 -31.58 -13.3 -209.5 -47.7
25.649 25.648 -29.078 -176.643 -31.58 -13.3 -209.5 -47.7
25.659 25.658 -27.193 -174.285 -36.896 -13.3 -209.5 -47.7
25.669 25.668 -27.193 -174.285 -36.896 -13.3 -209.5 -47.7
25.679 25.678 -24.501999 -171.62799 -40.96 -13.3 -209.5 -47.7
25.689 25.688 -24.501999 -171.62799 -40.96 -13.3 -209.5 -47.7
25.699 25.698 -22.158 -171.676 -43.766 -13.3 -209.5 -47.7
25.709 25.708 -22.158 -171.676 -43.766 -13.3 -209.5 -47.7
25.720 25.718 -19.495 -170.217 -47.517002 -13.3 -209.5 -47.7
25.729 25.728 -19.495 -170.217 -47.517002 -13.3 -209.5 -47.7
25.740 25.738 -15.56 -170.34 -47.168 -13.3 -209.5 -47.7
25.749 25.748 -15.56 -170.34 -47.168 -13.3 -209.5 -47.7
25.760 25.758 -12.965 -170.607 -49.032 -13.3 -209.5 -47.7
25.769 25.768 -12.965 -170.607 -49.032 -13.3 -209.5 -47.7
25.779 25.778 -7.5600004 -170.354 -50.573 -13.3 -210.2 -48.2
25.789 25.788 -7.5600004 -170.354 -50.573 -13.3 -210.2 -48.2
25.800 25.798 -0.83500004 -171.836 -50.204002 -13.3 -210.2 -48.2
25.809 25.808 -0.83500004 -171.836 -50.204002 -13.3 -210.2 -48.2
25.819 25.818 3.2270002 -176.202 -56.14 -13.3 -210.2 -48.2
25.829 25.828 3.2270002 -176.202 -56.14 -13.3 -210.2 -48.2
25.840 25.838 7.1990004 -179.804 -58.631 -13.3 -210.2 -48.2
25.849 25.848 7.1990004 -179.804 -58.631 -13.3 -210.2 -48.2
25.859 25.858 9.561 -184.855 -64.577 -13.3 -210.2 -48.2
25.869 25.868 9.561 -184.855 -64.577 -13.3 -210.2 -48.2
25.879 25.878 8.856 -190.72 -71.5 -13.3 -210.2 -48.2
25.889 25.888 8.856 -190.72 -71.5 -13.3 -210.2 -48.2
25.899 25.898 5.918 -194.44 -78.128 -13.3 -210.2 -48.2
25.909 25.908 5.918 -194.44 -78.128 -13.3 -210.2 -48.2
25.920 25.918 -3.8129997 -201.198 -84.81 -13.3 -210.2 -48.2
25.929 25.928 -3.8129997 -201.198 -84.81 -13.3 -210.2 -48.2
25.939 25.938 -10.843 -205.367 -87.076004 -13.3 -210.2 -48.2
25.949 25.948 -10.843 -205.367 -87.076004 -13.3 -210.2 -48.2
25.960 25.958 -14.807 -209.051 -87.744 -13.3 -210.2 -48.2
25.969 25.968 -14.807 -209.051 -87.744 -13.3 -210.2 -48.2
25.980 25.978 -17.713 -211.77501 -86.520996 -14.0 -210.6 -47.7
25.989 25.988 -17.713 -211.77501 -86.520996 -14.0 -210.6 -47.7
25.999 25.998 -19.431 -213.136 -85.918 -14.0 -210.6 -47.7
26.009 26.008 -19.431 -213.136 -85.918 -14.0 -210.6 -47.7
26.019 26.018 -19.758 -215.322 -85.614 -14.0 -210.6 -47.7
26.029 26.028 -19.758 -215.322 -85.614 -14.0 -210.6 -47.7
26.039 26.038 -18.355999 -215.13501 -85.297 -14.0 -210.6 -47.7
26.049 26.048 -18.355999 -215.13501 -85.297 -14.0 -210.6 -47.7
26.059 26.058 -17.173 -215.41501 -87.194 -14.0 -210.6 -47.7
26.069 26.068 -17.173 -215.41501 -87.194 -14.0 -210.6 -47.7
26.079 26.078 -16.061 -215.40901 -86.561005 -14.3 -209.6 -47.7
26.089 26.088 -16.061 -215.40901 -86.561005 -14.3 -209.6 -47.7
26.099 26.098 -16.006 -214.867 -88.15 -14.3 -209.6 -47.7
26.109 26.108 -16.006 -214.867 -88.15 -14.3 -209.6 -47.7
26.119 26.118 -12.908 -212.194 -86.882 -14.3 -209.6 -47.7
26.129 26.128 -12.908 -212.194 -86.882 -14.3 -209.6 -47.7
26.139 26.138 -9.483 -211.475 -88.123 -14.3 -209.6 -47.7
26.149 26.148 -9.483 -211.475 -88.123 -14.3 -209.6 -47.7
26.160 26.158 -3.5440006 -208.76701 -88.085 -14.3 -209.6 -47.7
26.169 26.168 -3.5440006 -208.76701 -88.085 -14.3 -209.6 -47.7
26.179 26.178 4.468999 -208.31801 -83.966 -14.3 -209.6 -47.7
26.189 26.188 4.468999 -208.31801 -83.966 -14.3 -209.6 -47.7
26.199 26.198 11.834001 -208.11 -77.031 -14.3 -209.6 -47.7
26.209 26.208 11.834001 -208.11 -77.031 -14.3 -209.6 -47.7
26.219 26.218 17.880001 -206.69801 -72.298004 -14.3 -209.6 -47.7
26.229 26.228 17.880001 -206.69801 -72.298004 -14.3 -209.6 -47.7
26.239 26.238 21.439 -201.613 -67.6 -14.3 -209.6 -47.7
26.249 26.248 21.439 -201.613 -67.6 -14.3 -209.6 -47.7
26.259 26.258 21.077 -197.22601 -62.923 -14.3 -209.6 -47.7
26.269 26.268 21.077 -197.22601 -62.923 -14.3 -209.6 -47.7
26.279 26.278 19.804 -190.862 -64.203 -14.3 -209.6 -47.7
26.289 26.288 19.804 -190.862 -64.203 -14.3 -209.6 -47.7
26.299 26.298 17.307999 -189.22 -64.239 -14.3 -209.6 -47.7
26.309 26.308 17.307999 -189.22 -64.239 -14.3 -209.6 -47.7
26.319 26.318 16.541 -188.52701 -66.138 -14.3 -209.6 -47.7
26.329 26.328 16.541 -188.52701 -66.138 -14.3 -209.6 -47.7
26.339 26.338 15.7699995 -189.158 -68.645996 -14.3 -209.6 -47.7
26.349 26.348 15.7699995 -189.158 -68.645996 -14.3 -209.6 -47.7
26.360 26.358 13.317 -192.795 -71.804 -13.7 -210.4 -47.9
26.369 26.368 13.317 -192.795 -71.804 -13.7 -210.4 -47.9
26.379 26.378 13.915999 -196.069 -74.924 -13.7 -210.4 -47.9
26.389 26.388 13.915999 -196.069 -74.924 -13.7 -210.4 -47.9
26.399 26.398 10.13 -201.11 -80.858 -13.7 -210.4 -47.9
26.409 26.408 10.13 -201.11 -80.858 -13.7 -210.4 -47.9
26.420 26.418 6.5129995 -206.54399 -83.06 -13.7 -210.4 -47.9
26.429 26.428 6.5129995 -206.54399 -83.06 -13.7 -210.4 -47.9
26.439 26.438 1.8310003 -211.46799 -86.192 -13.7 -210.4 -47.9
26.449 26.448 1.8310003 -211.46799 -86.192 -13.7 -210.4 -47.9
26.460 26.458 -3.3969994 -212.631 -87.16901 -13.7 -210.4 -47.9
26.469 26.468 -3.3969994 -212.631 -87.16901 -13.7 -210.4 -47.9
26.479 26.478 -8.335 -210.338 -87.841 -13.7 -210.4 -47.9
26.489 26.488 -8.335 -210.338 -87.841 -13.7 -210.4 -47.9
26.499 26.498 -14.616 -208.023 -89.748 -13.7 -209.9 -48.1
26.509 26.508 -14.616 -208.023 -89.748 -13.7 -209.9 -48.1
26.520 26.518 -19.857 -204.443 -89.185 -13.7 -209.9 -48.1
26.529 26.528 -19.857 -204.443 -89.185 -13.7 -209.9 -48.1
26.539 26.538 -20.679 -201.31 -88.891 -13.7 -209.9 -48.1
26.549 26.548 -20.679 -201.31 -88.891 -13.7 -209.9 -48.1
26.560 26.558 -17.945 -200.336 -87.634995 -13.7 -209.9 -48.1
26.569 26.568 -17.945 -200.336 -87.634995 -13.7 -209.9 -48.1
26.579 26.578 -13.775 -200.288 -88.218994 -13.7 -209.9 -48.1
26.589 26.588 -13.775 -200.288 -88.218994 -13.7 -209.9 -48.1
26.599 26.598 -9.919 -200.446 -87.26199 -13.7 -209.9 -48.1
26.609 26.608 -9.919 -200.446 -87.26199 -13.7 -209.9 -48.1
26.619 26.618 -6.286 -201.229 -88.78 -14.0 -210.3 -48.3
26.629 26.628 -6.286 -201.229 -88.78 -14.0 -210.3 -48.3
26.639 26.638 -0.5439997 -202.065 -86.576996 -14.0 -210.3 -48.3
26.650 26.648 -0.5439997 -202.065 -86.576996 -14.0 -210.3 -48.3
26.659 26.658 0.7550001 -202.435 -84.097 -14.0 -210.3 -48.3
26.669 26.668 0.7550001 -202.435 -84.097 -14.0 -210.3 -48.3
26.679 26.678 4.559 -203.597 -82.528 -14.0 -210.3 -48.3
26.689 26.688 4.559 -203.597 -82.528 -14.0 -210.3 -48.3
26.699 26.698 7.281 -205.882 -81.878 -14.0 -210.3 -48.3
26.709 26.708 7.281 -205.882 -81.878 -14.0 -210.3 -48.3
26.719 26.718 9.931 -211.46901 -80.623 -14.0 -210.3 -48.3
26.729 26.728 9.931 -211.46901 -80.623 -14.0 -210.3 -48.3
26.739 26.738 9.757 -218.752 -77.552 -14.0 -210.3 -48.3
26.749 26.748 9.757 -218.752 -77.552 -14.0 -210.3 -48.3
26.760 26.758 10.945 -224.784 -73.229996 -14.0 -210.3 -48.3
26.769 26.768 10.945 -224.784 -73.229996 -14.0 -210.3 -48.3
26.779 26.778 10.540001 -229.703 -70.431 -14.0 -210.3 -48.3
26.789 26.788 10.540001 -229.703 -70.431 -14.0 -210.3 -48.3
26.799 26.798 8.627001 -234.73001 -63.933 -14.0 -210.3 -48.3
26.809 26.808 8.627001 -234.73001 -63.933 -14.0 -210.3 -48.3
26.819 26.818 8.174 -239.064 -59.868 -14.0 -210.3 -48.3
26.829 26.828 8.174 -239.064 -59.868 -14.0 -210.3 -48.3
26.839 26.838 5.9589996 -241.85901 -52.071 -14.0 -210.3 -48.3
26.849 26.848 5.9589996 -241.85901 -52.071 -14.0 -210.3 -48.3
26.859 26.858 3.4430008 -243.31299 -43.632 -14.5 -208.9 -49.1
26.869 26.868 3.4430008 -243.31299 -43.632 -14.5 -208.9 -49.1
26.879 26.878 -0.42199993 -243.953 -36.088997 -14.5 -208.9 -49.1
26.889 26.888 -0.42199993 -243.953 -36.088997 -14.5 -208.9 -49.1
26.899 26.898 -2.5830002 -242.211 -29.141998 -14.5 -208.9 -49.1
26.909 26.908 -2.5830002 -242.211 -29.141998 -14.5 -208.9 -49.1
26.920 26.918 -5.521 -240.068 -24.072998 -14.5 -208.9 -49.1
26.929 26.928 -5.521 -240.068 -24.072998 -14.5 -208.9 -49.1
26.939 26.938 -6.495 -234.92 -17.738998 -14.5 -208.9 -49.1
26.949 26.948 -6.495 -234.92 -17.738998 -14.5 -208.9 -49.1
26.960 26.958 -8.261 -229.215 -12.961998 -14.5 -208.9 -49.1
26.969 26.968 -8.261 -229.215 -12.961998 -14.5 -208.9 -49.1
26.979 26.978 -8.541 -222.249 -10.382999 -14.5 -208.9 -49.1
26.989 26.988 -8.541 -222.249 -10.382999 -14.5 -208.9 -49.1
26.999 26.998 -6.2209997 -212.054 -8.732998 -14.5 -208.9 -49.1
27.009 27.008 -6.2209997 -212.054 -8.732998 -14.5 -208.9 -49.1
27.019 27.018 -5.292 -204.331 -8.042 -14.5 -208.9 -49.1
27.029 27.028 -5.292 -204.331 -8.042 -14.5 -208.9 -49.1
27.039 27.038 -3.1709995 -196.88599 -9.872997 -14.5 -208.9 -49.1
27.049 27.048 -3.1709995 -196.88599 -9.872997 -14.5 -208.9 -49.1
27.059 27.058 -4.139 -189.932 -12.034 -15.2 -208.8 -47.8
27.069 27.068 -4.139 -189.932 -12.034 -15.2 -208.8 -47.8
27.079 27.078 -4.783 -184.617 -16.099998 -15.2 -208.8 -47.8
27.089 27.088 -4.783 -184.617 -16.099998 -15.2 -208.8 -47.8
27.099 27.098 -5.168 -180.31601 -20.172998 -15.2 -208.8 -47.8
27.109 27.108 -5.168 -180.31601 -20.172998 -15.2 -208.8 -47.8
27.119 27.118 -4.667 -175.649 -24.876 -15.2 -208.8 -47.8
27.129 27.128 -4.667 -175.649 -24.876 -15.2 -208.8 -47.8
27.139 27.138 -3.988 -175.059 -28.310999 -15.2 -208.8 -47.8
27.149 27.148 -3.988 -175.059 -28.310999 -15.2 -208.8 -47.8
27.160 27.158 -0.93499947 -172.20401 -34.569 -15.2 -208.8 -47.8
27.169 27.168 -0.93499947 -172.20401 -34.569 -15.2 -208.8 -47.8
27.179 27.178 1.1549997 -172.768 -38.948997 -15.2 -208.8 -47.8
27.189 27.188 1.1549997 -172.768 -38.948997 -15.2 -208.8 -47.8
27.199 27.198 3.6309996 -173.422 -46.149998 -15.2 -208.8 -47.8
27.209 27.208 3.6309996 -173.422 -46.149998 -15.2 -208.8 -47.8
27.219 27.218 4.974 -174.086 -53.36 -15.2 -208.8 -47.8
27.229 27.228 4.974 -174.086 -53.36 -15.2 -208.8 -47.8
27.239 27.238 6.2459993 -176.29901 -59.002 -15.2 -208.8 -47.8
27.249 27.248 6.2459993 -176.29901 -59.002 -15.2 -208.8 -47.8
27.259 27.258 5.840001 -180.01001 -65.598 -15.2 -208.8 -47.8
27.269 27.268 5.840001 -180.01001 -65.598 -15.2 -208.8 -47.8
27.280 27.278 5.6989994 -183.874 -71.880005 -15.6 -208.2 -47.9
27.289 27.288 5.6989994 -183.874 -71.880005 -15.6 -208.2 -47.9
27.299 27.298 4.605999 -189.004 -75.342 -15.6 -208.2 -47.9
27.309 27.308 4.605999 -189.004 -75.342 -15.6 -208.2 -47.9
27.320 27.318 5.201 -191.312 -77.227005 -15.6 -208.2 -47.9
27.329 27.328 5.201 -191.312 -77.227005 -15.6 -208.2 -47.9
27.339 27.338 2.4689999 -194.413 -81.33 -15.6 -208.2 -47.9
27.349 27.348 2.4689999 -194.413 -81.33 -15.6 -208.2 -47.9
27.360 27.358 0.17399979 -198.76599 -81.98 -15.6 -208.2 -47.9
27.369 27.368 0.17399979 -198.76599 -81.98 -15.6 -208.2 -47.9
27.379 27.378 0.5289993 -199.364 -84.498 -15.6 -208.2 -47.9
27.389 27.388 0.5289993 -199.364 -84.498 -15.6 -208.2 -47.9
27.399 27.398 -0.33600044 -200.558 -84.198 -15.6 -208.2 -47.9
27.409 27.408 -0.33600044 -200.558 -84.198 -15.6 -208.2 -47.9
27.419 27.418 -3.078 -200.498 -86.749 -15.6 -208.2 -47.9
27.429 27.428 -3.078 -200.498 -86.749 -15.6 -208.2 -47.9
27.439 27.438 -4.7790003 -201.00499 -86.45 -15.6 -208.2 -47.9
27.449 27.448 -4.7790003 -201.00499 -86.45 -15.6 -208.2 -47.9
27.459 27.458 -6.1800003 -201.98799 -87.105 -15.6 -208.2 -47.9
27.469 27.468 -6.1800003 -201.98799 -87.105 -15.6 -208.2 -47.9
27.479 27.478 -6.429001 -201.948 -88.365005 -15.6 -208.2 -47.9
27.489 27.488 -6.429001 -201.948 -88.365005 -15.6 -208.2 -47.9
27.499 27.498 -6.538 -201.858 -84.915 -15.6 -208.2 -47.9
27.509 27.508 -6.538 -201.858 -84.915 -15.6 -208.2 -47.9
27.519 27.518 -6.4680004 -203.286 -87.75101 -15.6 -208.2 -47.9
27.529 27.528 -6.4680004 -203.286 -87.75101 -15.6 -208.2 -47.9
27.539 27.538 -4.8190002 -204.138 -86.804 -15.6 -208.2 -47.9
27.549 27.548 -4.8190002 -204.138 -86.804 -15.6 -208.2 -47.9
27.559 27.558 -3.3980007 -205.108 -87.425 -15.6 -208.2 -47.9
27.569 27.568 -3.3980007 -205.108 -87.425 -15.6 -208.2 -47.9
27.579 27.578 -4.1780005 -205.056 -89.324005 -15.6 -208.2 -47.9
27.589 27.588 -4.1780005 -205.056 -89.324005 -15.6 -208.2 -47.9
27.599 27.598 -5.385 -205.937 -87.14101 -15.6 -208.2 -47.9
27.609 27.608 -5.385 -205.937 -87.14101 -15.6 -208.2 -47.9
27.619 27.618 -4.5 -204.568 -87.770004 -15.6 -208.2 -47.9
27.629 27.628 -4.5 -204.568 -87.770004 -15.6 -208.2 -47.9
27.639 27.638 -2.8650007 -204.418 -86.192 -15.6 -208.2 -47.9
27.649 27.648 -2.8650007 -204.418 -86.192 -15.6 -208.2 -47.9
27.659 27.658 -0.0890007 -205.562 -85.862 -15.6 -208.2 -47.9
27.669 27.668 -0.0890007 -205.562 -85.862 -15.6 -208.2 -47.9
27.679 27.678 1.5860004 -204.721 -85.541 -15.6 -208.2 -47.9
27.689 27.688 1.5860004 -204.721 -85.541 -15.6 -208.2 -47.9
27.699 27.698 3.2069988 -206.715 -84.917 -15.6 -208.2 -47.9
27.709 27.708 3.2069988 -206.715 -84.917 -15.6 -208.2 -47.9
27.719 27.718 5.5839996 -210.219 -82.727005 -15.6 -208.2 -47.9
27.729 27.728 5.5839996 -210.219 -82.727005 -15.6 -208.2 -47.9
27.739 27.738 8.302 -212.346 -82.42 -15.6 -208.2 -47.9
27.749 27.748 8.302 -212.346 -82.42 -15.6 -208.2 -47.9
27.759 27.758 8.800999 -210.994 -81.206 -15.6 -208.2 -47.9
27.769 27.768 8.800999 -210.994 -81.206 -15.6 -208.2 -47.9
27.779 27.778 8.990999 -210.627 -80.625 -15.6 -208.2 -47.9
27.789 27.788 8.990999 -210.627 -80.625 -15.6 -208.2 -47.9
27.799 27.798 8.938999 -208.944 -80.677 -15.6 -208.2 -47.9
27.809 27.808 8.938999 -208.944 -80.677 -15.6 -208.2 -47.9
27.819 27.818 8.039 -207.295 -80.756 -15.6 -208.2 -47.9
27.829 27.828 8.039 -207.295 -80.756 -15.6 -208.2 -47.9
27.839 27.838 7.92 -205.673 -81.44 -15.6 -208.2 -47.9
27.849 27.848 7.92 -205.673 -81.44 -15.6 -208.2 -47.9
27.859 27.858 7.7560005 -204.01599 -81.26 -15.6 -208.2 -47.9
27.869 27.868 7.7560005 -204.01599 -81.26 -15.6 -208.2 -47.9
27.879 27.878 8.083 -203.353 -81.074005 -15.6 -208.2 -47.9
27.889 27.888 8.083 -203.353 -81.074005 -15.6 -208.2 -47.9
27.899 27.898 8.237999 -203.111 -81.692 -15.6 -208.2 -47.9
27.909 27.908 8.237999 -203.111 -81.692 -15.6 -208.2 -47.9
27.919 27.918 8.605 -203.808 -80.137 -15.6 -208.2 -47.9
27.929 27.928 8.605 -203.808 -80.137 -15.6 -208.2 -47.9
27.939 27.938 7.897999 -204.573 -80.405 -15.6 -208.2 -47.9
27.949 27.948 7.897999 -204.573 -80.405 -15.6 -208.2 -47.9
27.960 27.958 8.747999 -204.14 -81.724 -15.6 -208.2 -47.9
27.969 27.968 8.747999 -204.14 -81.724 -15.6 -208.2 -47.9
27.979 27.978 8.796 -204.025 -80.879 -15.6 -208.2 -47.9
27.989 27.988 8.796 -204.025 -80.879 -15.6 -208.2 -47.9
27.999 27.998 9.097 -204.61299 -80.851 -15.6 -208.2 -47.9
28.009 28.008 9.097 -204.61299 -80.851 -15.6 -208.2 -47.9
28.020 28.018 8.171999 -205.508 -80.83501 -15.6 -208.2 -47.9
28.029 28.028 8.171999 -205.508 -80.83501 -15.6 -208.2 -47.9
28.040 28.038 8.970999 -205.236 -81.339005 -15.6 -208.2 -47.9
28.049 28.048 8.970999 -205.236 -81.339005 -15.6 -208.2 -47.9
28.059 28.058 8.264999 -205.424 -80.524 -15.6 -208.2 -47.9
28.069 28.068 8.264999 -205.424 -80.524 -15.6 -208.2 -47.9
28.080 28.078 8.799999 -205.28299 -81.312 -15.6 -208.2 -47.9
28.089 28.088 8.799999 -205.28299 -81.312 -15.6 -208.2 -47.9
28.099 28.098 8.375 -204.89299 -81.563 -15.6 -208.2 -47.9
28.109 28.108 8.375 -204.89299 -81.563 -15.6 -208.2 -47.9
28.119 28.118 7.5079994 -204.91699 -82.059006 -15.6 -208.2 -47.9
28.129 28.128 7.5079994 -204.91699 -82.059006 -15.6 -208.2 -47.9
28.139 28.138 7.546999 -204.948 -82.051 -15.6 -208.2 -47.9
28.149 28.148 7.546999 -204.948 -82.051 -15.6 -208.2 -47.9
28.159 28.158 6.313999 -205.861 -82.256 -15.6 -208.2 -47.9
28.169 28.168 6.313999 -205.861 -82.256 -15.6 -208.2 -47.9
28.179 28.178 6.452999 -205.887 -82.630005 -15.6 -208.2 -47.9
28.189 28.188 6.452999 -205.887 -82.630005 -15.6 -208.2 -47.9
28.200 28.198 6.8239994 -206.41899 -83.119 -15.6 -208.2 -47.9
28.209 28.208 6.8239994 -206.41899 -83.119 -15.6 -208.2 -47.9
28.219 28.218 6.0109997 -206.29 -82.341 -15.6 -208.2 -47.9
28.229 28.228 6.0109997 -206.29 -82.341 -15.6 -208.2 -47.9
28.239 28.238 7.004999 -205.995 -81.946 -15.6 -208.2 -47.9
28.249 28.248 7.004999 -205.995 -81.946 -15.6 -208.2 -47.9
28.259 28.258 7.334999 -206.063 -81.975006 -15.6 -208.2 -47.9
28.269 28.268 7.334999 -206.063 -81.975006 -15.6 -208.2 -47.9
28.279 28.278 7.6870003 -206.252 -81.793 -15.6 -208.2 -47.9
28.289 28.288 7.6870003 -206.252 -81.793 -15.6 -208.2 -47.9
28.299 28.298 8.0060005 -206.224 -81.459 -15.6 -208.2 -47.9
28.309 28.308 8.0060005 -206.224 -81.459 -15.6 -208.2 -47.9
28.319 28.318 8.029999 -206.148 -81.453 -15.6 -208.2 -47.9
28.329 28.328 8.029999 -206.148 -81.453 -15.6 -208.2 -47.9
28.339 28.338 8.0 -206.0 -81.4 -15.6 -208.2 -47.9
28.349 28.348 8.0 -206.0 -81.4 -15.6 -208.2 -47.9
28.359 28.358 7.799999 -205.9 -81.5 -15.6 -208.2 -47.9
28.369 28.368 7.799999 -205.9 -81.5 -15.6 -208.2 -47.9
28.379 28.378 7.699999 -205.9 -81.600006 -15.6 -208.2 -47.9
28.389 28.388 7.699999 -205.9 -81.600006 -15.6 -208.2 -47.9
28.399 28.398 7.6000004 -205.9 -81.7 -15.6 -208.2 -47.9
28.409 28.408 7.6000004 -205.9 -81.7 -15.6 -208.2 -47.9
28.419 28.418 7.4519997 -206.14 -81.874 -15.6 -208.2 -47.9
28.429 28.428 7.4519997 -206.14 -81.874 -15.6 -208.2 -47.9
28.439 28.438 7.140999 -206.911 -82.199005 -15.6 -208.2 -47.9
28.449 28.448 7.140999 -206.911 -82.199005 -15.6 -208.2 -47.9
28.459 28.458 6.858 -208.065 -82.665 -15.6 -208.2 -47.9
28.469 28.468 6.858 -208.065 -82.665 -15.6 -208.2 -47.9
28.479 28.478 6.8619995 -208.40599 -82.563 -15.6 -208.2 -47.9
28.489 28.488 6.8619995 -208.40599 -82.563 -15.6 -208.2 -47.9
28.499 28.498 6.427 -208.855 -82.977005 -15.6 -208.2 -47.9
28.509 28.508 6.427 -208.855 -82.977005 -15.6 -208.2 -47.9
28.519 28.518 6.521 -209.162 -82.959 -15.6 -208.2 -47.9
28.529 28.528 6.521 -209.162 -82.959 -15.6 -208.2 -47.9
28.539 28.538 6.5219994 -209.58 -82.84 -15.6 -208.2 -47.9
28.549 28.548 6.5219994 -209.58 -82.84 -15.6 -208.2 -47.9
28.559 28.558 6.736 -209.584 -82.584 -15.6 -208.2 -47.9
28.569 28.568 6.736 -209.584 -82.584 -15.6 -208.2 -47.9
28.579 28.578 6.3549995 -209.384 -83.242004 -15.6 -208.2 -47.9
28.589 28.588 6.3549995 -209.384 -83.242004 -15.6 -208.2 -47.9
28.599 28.598 6.4540005 -209.759 -83.44 -15.6 -208.2 -47.9
28.609 28.608 6.4540005 -209.759 -83.44 -15.6 -208.2 -47.9
28.619 28.618 6.0359993 -210.12 -82.966 -15.6 -208.2 -47.9
28.629 28.628 6.0359993 -210.12 -82.966 -15.6 -208.2 -47.9
28.639 28.638 6.3759995 -209.97299 -83.455 -15.6 -208.2 -47.9
28.649 28.648 6.3759995 -209.97299 -83.455 -15.6 -208.2 -47.9
28.659 28.658 6.147999 -210.043 -83.561005 -15.6 -208.2 -47.9
28.669 28.668 6.147999 -210.043 -83.561005 -15.6 -208.2 -47.9
28.679 28.678 6.257 -210.146 -83.393005 -15.6 -208.2 -47.9
28.689 28.688 6.257 -210.146 -83.393005 -15.6 -208.2 -47.9
28.699 28.698 5.914999 -210.236 -83.695 -15.6 -208.2 -47.9
28.709 28.708 5.914999 -210.236 -83.695 -15.6 -208.2 -47.9
28.719 28.718 5.9449997 -210.12999 -83.515 -15.6 -208.2 -47.9
28.729 28.728 5.9449997 -210.12999 -83.515 -15.6 -208.2 -47.9
28.739 28.738 5.799999 -210.3 -83.600006 -15.6 -208.2 -47.9
28.750 28.748 5.799999 -210.3 -83.600006 -15.6 -208.2 -47.9
28.759 28.758 5.799999 -210.5 -83.7 -15.6 -208.2 -47.9
28.769 28.768 5.799999 -210.5 -83.7 -15.6 -208.2 -47.9
28.779 28.778 5.799999 -210.7 -83.7 -15.6 -208.2 -47.9
28.789 28.788 5.799999 -210.7 -83.7 -15.6 -208.2 -47.9
28.799 28.798 5.799999 -210.9 -83.7 -15.6 -208.2 -47.9
28.810 28.808 5.799999 -210.9 -83.7 -15.6 -208.2 -47.9
28.819 28.818 5.8999996 -211.2 -83.8 -15.6 -208.2 -47.9
28.829 28.828 5.8999996 -211.2 -83.8 -15.6 -208.2 -47.9
28.839 28.838 5.8999996 -211.4 -83.8 -15.6 -208.2 -47.9
28.849 28.848 5.8999996 -211.4 -83.8 -15.6 -208.2 -47.9
28.859 28.858 6.0 -211.59999 -83.9 -15.6 -208.2 -47.9
28.869 28.868 6.0 -211.59999 -83.9 -15.6 -208.2 -47.9
28.879 28.878 6.0 -211.8 -83.8 -15.6 -208.2 -47.9
28.911 28.888 6.0 -211.8 -83.8 -15.6 -208.2 -47.9
28.911 28.898 6.0 -212.0 -83.9 -15.6 -208.2 -47.9
28.911 28.908 6.0 -212.0 -83.9 -15.6 -208.2 -47.9
28.919 28.918 6.0 -212.09999 -83.9 -15.6 -208.2 -47.9
28.929 28.928 6.0 -212.09999 -83.9 -15.6 -208.2 -47.9
28.939 28.938 6.1000004 -212.2 -83.9 -15.6 -208.2 -47.9
28.949 28.948 6.1000004 -212.2 -83.9 -15.6 -208.2 -47.9
28.959 28.958 6.1000004 -212.3 -83.9 -15.6 -208.2 -47.9
28.969 28.968 6.1000004 -212.3 -83.9 -15.6 -208.2 -47.9
28.979 28.978 6.1000004 -212.4 -83.8 -15.6 -208.2 -47.9
28.989 28.988 6.1000004 -212.4 -83.8 -15.6 -208.2 -47.9
28.999 28.998 6.1000004 -212.4 -83.9 -15.6 -208.2 -47.9
29.009 29.008 6.1000004 -212.4 -83.9 -15.6 -208.2 -47.9
29.019 29.018 6.1000004 -212.5 -83.9 -15.6 -208.2 -47.9
29.029 29.028 6.1000004 -212.5 -83.9 -15.6 -208.2 -47.9
29.039 29.038 6.1000004 -212.5 -83.9 -15.6 -208.2 -47.9
29.049 29.048 6.1000004 -212.5 -83.9 -15.6 -208.2 -47.9
29.059 29.058 6.1000004 -212.5 -83.9 -15.6 -208.2 -47.9
29.069 29.068 6.1000004 -212.5 -83.9 -15.6 -208.2 -47.9
29.079 29.078 6.1000004 -212.5 -84.0 -15.6 -208.2 -47.9
29.089 29.088 6.1000004 -212.5 -84.0 -15.6 -208.2 -47.9
29.099 29.098 6.0 -212.5 -83.9 -15.6 -208.2 -47.9
29.109 29.108 6.0 -212.5 -83.9 -15.6 -208.2 -47.9
29.119 29.118 6.0 -212.5 -83.9 -15.6 -208.2 -47.9
29.129 29.128 6.0 -212.5 -83.9 -15.6 -208.2 -47.9
29.139 29.138 6.0 -212.4 -84.0 -15.6 -208.2 -47.9
29.149 29.148 6.0 -212.4 -84.0 -15.6 -208.2 -47.9
29.159 29.158 5.8999996 -212.5 -84.100006 -15.6 -208.2 -47.9
29.169 29.168 5.8999996 -212.5 -84.100006 -15.6 -208.2 -47.9
29.179 29.178 5.8999996 -212.5 -84.100006 -15.6 -208.2 -47.9
29.189 29.188 5.8999996 -212.5 -84.100006 -15.6 -208.2 -47.9
29.199 29.198 5.8999996 -212.5 -84.100006 -15.6 -208.2 -47.9
29.209 29.208 5.8999996 -212.5 -84.100006 -15.6 -208.2 -47.9
29.219 29.218 5.799999 -212.5 -84.100006 -15.6 -208.2 -47.9
29.229 29.228 5.799999 -212.5 -84.100006 -15.6 -208.2 -47.9
29.239 29.238 5.799999 -212.5 -84.100006 -15.6 -208.2 -47.9
29.249 29.248 5.799999 -212.5 -84.100006 -15.6 -208.2 -47.9
29.259 29.258 5.699999 -212.59999 -84.100006 -15.6 -208.2 -47.9
29.269 29.268 5.699999 -212.59999 -84.100006 -15.6 -208.2 -47.9
29.279 29.278 5.699999 -212.5 -84.100006 -15.6 -208.2 -47.9
29.289 29.288 5.699999 -212.5 -84.100006 -15.6 -208.2 -47.9
29.299 29.298 5.6000004 -212.5 -84.0 -15.6 -208.2 -47.9
29.309 29.308 5.6000004 -212.5 -84.0 -15.6 -208.2 -47.9
29.320 29.318 5.6000004 -212.5 -84.100006 -15.6 -208.2 -47.9
29.333 29.328 5.6000004 -212.5 -84.100006 -15.6 -208.2 -47.9
29.351 29.338 5.6000004 -212.59999 -84.2 -15.6 -208.2 -47.9
29.351 29.348 5.6000004 -212.59999 -84.2 -15.6 -208.2 -47.9
29.359 29.358 5.6000004 -212.5 -84.100006 -15.6 -208.2 -47.9
29.369 29.368 5.6000004 -212.5 -84.100006 -15.6 -208.2 -47.9
29.379 29.378 5.5 -212.59999 -84.100006 -15.6 -208.2 -47.9
29.389 29.388 5.5 -212.59999 -84.100006 -15.6 -208.2 -47.9
29.399 29.398 5.5 -212.5 -84.100006 -15.6 -208.2 -47.9
29.409 29.408 5.5 -212.5 -84.100006 -15.6 -208.2 -47.9
29.419 29.418 5.5 -212.5 -84.100006 -15.6 -208.2 -47.9
29.429 29.428 5.5 -212.5 -84.100006 -15.6 -208.2 -47.9
29.440 29.438 5.5 -212.5 -84.2 -15.6 -208.2 -47.9
29.449 29.448 5.5 -212.5 -84.2 -15.6 -208.2 -47.9
29.459 29.458 5.3999996 -212.5 -84.2 -15.6 -208.2 -47.9
29.469 29.468 5.3999996 -212.5 -84.2 -15.6 -208.2 -47.9
29.479 29.478 5.3999996 -212.5 -84.2 -15.6 -208.2 -47.9
29.489 29.488 5.3999996 -212.5 -84.2 -15.6 -208.2 -47.9
29.499 29.498 5.3999996 -212.5 -84.2 -15.6 -208.2 -47.9
29.509 29.508 5.3999996 -212.5 -84.2 -15.6 -208.2 -47.9
29.519 29.518 5.3999996 -212.5 -84.2 -15.6 -208.2 -47.9
29.529 29.528 5.3999996 -212.5 -84.2 -15.6 -208.2 -47.9
29.539 29.538 5.299999 -212.59999 -84.3 -15.6 -208.2 -47.9
29.549 29.548 5.299999 -212.59999 -84.3 -15.6 -208.2 -47.9
29.559 29.558 5.299999 -212.59999 -84.3 -15.6 -208.2 -47.9
29.569 29.568 5.299999 -212.59999 -84.3 -15.6 -208.2 -47.9
29.579 29.578 5.299999 -212.59999 -84.4 -15.6 -208.2 -47.9
29.589 29.588 5.299999 -212.59999 -84.4 -15.6 -208.2 -47.9
29.599 29.598 5.299999 -212.59999 -84.4 -15.6 -208.2 -47.9
29.609 29.608 5.299999 -212.59999 -84.4 -15.6 -208.2 -47.9
29.619 29.618 5.299999 -212.59999 -84.3 -15.6 -208.2 -47.9
